'sample interval','I'
'0.002 sec','mV'
0,-0.060
1,-0.050
2,-0.050
3,-0.055
4,-0.060
5,-0.060
6,-0.055
7,-0.055
8,-0.050
9,-0.040
10,-0.030
11,-0.030
12,-0.035
13,-0.040
14,-0.040
15,-0.040
16,-0.035
17,-0.035
18,-0.035
19,-0.035
20,-0.030
21,-0.020
22,-0.020
23,-0.020
24,-0.020
25,-0.020
26,-0.020
27,-0.015
28,-0.010
29,-0.010
30,-0.015
31,-0.010
32,-0.010
33,-0.010
34,-0.020
35,-0.020
36,-0.020
37,-0.030
38,-0.035
39,-0.040
40,-0.040
41,-0.040
42,-0.040
43,-0.040
44,-0.050
45,-0.055
46,-0.060
47,-0.060
48,-0.060
49,-0.060
50,-0.055
51,-0.050
52,-0.040
53,-0.040
54,-0.040
55,-0.050
56,-0.055
57,-0.060
58,-0.055
59,-0.050
60,-0.040
61,-0.040
62,-0.035
63,-0.035
64,-0.040
65,-0.055
66,-0.060
67,-0.060
68,-0.070
69,-0.075
70,-0.075
71,-0.075
72,-0.070
73,-0.070
74,-0.060
75,-0.060
76,-0.060
77,-0.060
78,-0.055
79,-0.055
80,-0.055
81,-0.060
82,-0.060
83,-0.060
84,-0.060
85,-0.060
86,-0.060
87,-0.070
88,-0.070
89,-0.060
90,-0.055
91,-0.060
92,-0.075
93,-0.075
94,-0.060
95,-0.050
96,-0.040
97,-0.040
98,-0.040
99,-0.050
100,-0.055
101,-0.060
102,-0.055
103,-0.040
104,-0.030
105,-0.020
106,-0.015
107,-0.015
108,-0.010
109,-0.015
110,-0.010
111,-0.010
112,0.000
113,0.015
114,0.030
115,0.040
116,0.040
117,0.040
118,0.050
119,0.055
120,0.060
121,0.060
122,0.055
123,0.050
124,0.035
125,0.035
126,0.030
127,0.035
128,0.035
129,0.040
130,0.040
131,0.040
132,0.035
133,0.030
134,0.020
135,0.030
136,0.035
137,0.040
138,0.040
139,0.040
140,0.040
141,0.040
142,0.040
143,0.040
144,0.035
145,0.030
146,0.030
147,0.035
148,0.040
149,0.035
150,0.020
151,0.000
152,-0.015
153,-0.020
154,-0.020
155,-0.020
156,-0.015
157,-0.010
158,-0.010
159,-0.015
160,-0.020
161,-0.030
162,-0.035
163,-0.040
164,-0.040
165,-0.040
166,-0.040
167,-0.040
168,-0.035
169,-0.030
170,-0.030
171,-0.035
172,-0.040
173,-0.040
174,-0.040
175,-0.035
176,-0.030
177,-0.030
178,-0.035
179,-0.040
180,-0.040
181,-0.055
182,-0.070
183,-0.080
184,-0.090
185,-0.095
186,-0.095
187,-0.080
188,-0.070
189,-0.055
190,-0.035
191,0.000
192,0.040
193,0.080
194,0.135
195,0.190
196,0.250
197,0.310
198,0.375
199,0.435
200,0.495
201,0.550
202,0.590
203,0.600
204,0.595
205,0.560
206,0.510
207,0.435
208,0.375
209,0.315
210,0.270
211,0.230
212,0.200
213,0.180
214,0.155
215,0.115
216,0.070
217,0.035
218,0.015
219,0.000
220,-0.015
221,-0.030
222,-0.040
223,-0.050
224,-0.050
225,-0.040
226,-0.040
227,-0.040
228,-0.050
229,-0.055
230,-0.055
231,-0.040
232,-0.035
233,-0.035
234,-0.050
235,-0.050
236,-0.055
237,-0.055
238,-0.060
239,-0.070
240,-0.075
241,-0.080
242,-0.075
243,-0.075
244,-0.070
245,-0.070
246,-0.060
247,-0.055
248,-0.050
249,-0.040
250,-0.035
251,-0.020
252,-0.010
253,-0.015
254,-0.030
255,-0.040
256,-0.035
257,-0.030
258,-0.020
259,-0.020
260,-0.020
261,-0.020
262,-0.020
263,-0.020
264,-0.020
265,-0.020
266,-0.020
267,-0.015
268,0.000
269,0.015
270,0.015
271,0.010
272,0.000
273,0.000
274,0.000
275,0.000
276,0.000
277,0.000
278,0.000
279,0.000
280,0.000
281,0.010
282,0.015
283,0.015
284,0.010
285,0.010
286,0.015
287,0.030
288,0.030
289,0.030
290,0.030
291,0.030
292,0.035
293,0.030
294,0.030
295,0.030
296,0.035
297,0.040
298,0.040
299,0.040
300,0.040
301,0.040
302,0.050
303,0.055
304,0.060
305,0.060
306,0.070
307,0.075
308,0.090
309,0.100
310,0.110
311,0.095
312,0.080
313,0.075
314,0.090
315,0.090
316,0.095
317,0.095
318,0.100
319,0.100
320,0.100
321,0.110
322,0.115
323,0.120
324,0.120
325,0.130
326,0.130
327,0.135
328,0.135
329,0.150
330,0.150
331,0.150
332,0.140
333,0.140
334,0.140
335,0.135
336,0.130
337,0.120
338,0.120
339,0.120
340,0.120
341,0.115
342,0.110
343,0.090
344,0.075
345,0.060
346,0.060
347,0.055
348,0.055
349,0.055
350,0.055
351,0.040
352,0.030
353,0.020
354,0.020
355,0.020
356,0.020
357,0.015
358,0.000
359,-0.015
360,-0.015
361,-0.010
362,-0.010
363,-0.010
364,-0.015
365,-0.015
366,-0.030
367,-0.030
368,-0.020
369,-0.015
370,-0.015
371,-0.020
372,-0.015
373,-0.015
374,-0.015
375,-0.020
376,-0.015
377,-0.010
378,-0.010
379,-0.015
380,-0.020
381,-0.020
382,-0.020
383,-0.020
384,-0.020
385,-0.020
386,-0.020
387,-0.020
388,-0.020
389,-0.020
390,-0.020
391,-0.020
392,-0.015
393,-0.020
394,-0.030
395,-0.040
396,-0.040
397,-0.035
398,-0.035
399,-0.035
400,-0.040
401,-0.040
402,-0.040
403,-0.035
404,-0.035
405,-0.035
406,-0.040
407,-0.040
408,-0.040
409,-0.040
410,-0.040
411,-0.040
412,-0.050
413,-0.055
414,-0.060
415,-0.060
416,-0.060
417,-0.055
418,-0.050
419,-0.040
420,-0.040
421,-0.040
422,-0.040
423,-0.035
424,-0.035
425,-0.035
426,-0.035
427,-0.030
428,-0.020
429,-0.030
430,-0.030
431,-0.030
432,-0.020
433,-0.030
434,-0.030
435,-0.030
436,-0.015
437,-0.015
438,-0.010
439,-0.010
440,-0.010
441,-0.015
442,-0.020
443,-0.020
444,-0.020
445,-0.020
446,-0.020
447,-0.020
448,-0.020
449,-0.020
450,-0.020
451,-0.020
452,-0.020
453,-0.020
454,-0.020
455,-0.020
456,-0.020
457,-0.020
458,-0.030
459,-0.035
460,-0.040
461,-0.050
462,-0.050
463,-0.050
464,-0.040
465,-0.050
466,-0.050
467,-0.040
468,-0.030
469,-0.030
470,-0.035
471,-0.040
472,-0.050
473,-0.055
474,-0.060
475,-0.055
476,-0.050
477,-0.050
478,-0.055
479,-0.060
480,-0.070
481,-0.075
482,-0.075
483,-0.070
484,-0.060
485,-0.060
486,-0.060
487,-0.040
488,-0.055
489,-0.055
490,-0.055
491,-0.055
492,-0.070
493,-0.070
494,-0.070
495,-0.070
496,-0.070
497,-0.070
498,-0.075
499,-0.075
500,-0.070
501,-0.070
502,-0.050
503,-0.070
504,-0.065
505,-0.065
506,-0.065
507,-0.065
508,-0.040
509,-0.035
510,-0.035
511,-0.035
512,-0.035
513,-0.035
514,-0.055
515,-0.030
516,-0.005
517,-0.020
518,0.000
519,0.005
520,-0.010
521,-0.010
522,-0.005
523,0.000
524,0.000
525,0.000
526,0.025
527,0.010
528,0.015
529,0.020
530,0.020
531,0.045
532,0.050
533,0.030
534,0.050
535,0.025
536,0.045
537,0.025
538,0.025
539,0.030
540,0.025
541,0.005
542,0.045
543,0.050
544,0.025
545,0.025
546,0.025
547,0.030
548,0.050
549,0.050
550,0.050
551,0.065
552,0.045
553,0.045
554,0.025
555,0.005
556,0.005
557,0.025
558,0.000
559,0.015
560,0.030
561,0.020
562,0.020
563,0.010
564,0.010
565,-0.015
566,-0.015
567,0.005
568,0.000
569,-0.045
570,-0.010
571,-0.015
572,-0.040
573,-0.065
574,-0.070
575,-0.070
576,-0.065
577,-0.065
578,-0.045
579,-0.065
580,-0.065
581,-0.050
582,-0.050
583,-0.050
584,-0.050
585,-0.050
586,-0.025
587,-0.025
588,-0.030
589,-0.035
590,-0.040
591,-0.060
592,-0.070
593,-0.095
594,-0.080
595,-0.070
596,-0.070
597,-0.075
598,-0.090
599,-0.100
600,-0.085
601,-0.060
602,-0.030
603,0.020
604,0.065
605,0.120
606,0.195
607,0.250
608,0.325
609,0.390
610,0.460
611,0.545
612,0.600
613,0.635
614,0.650
615,0.640
616,0.605
617,0.535
618,0.490
619,0.420
620,0.365
621,0.315
622,0.255
623,0.220
624,0.205
625,0.165
626,0.130
627,0.075
628,0.070
629,0.040
630,0.030
631,0.005
632,0.015
633,0.015
634,-0.005
635,0.015
636,0.015
637,0.015
638,-0.010
639,-0.015
640,-0.020
641,-0.025
642,-0.025
643,-0.005
644,-0.020
645,-0.025
646,-0.025
647,-0.025
648,-0.025
649,-0.025
650,-0.030
651,-0.045
652,-0.025
653,-0.025
654,-0.045
655,-0.025
656,-0.025
657,-0.005
658,-0.025
659,-0.025
660,-0.040
661,-0.040
662,-0.055
663,-0.030
664,-0.010
665,-0.030
666,-0.050
667,-0.065
668,-0.045
669,-0.040
670,-0.040
671,-0.020
672,-0.020
673,-0.020
674,-0.040
675,-0.020
676,-0.020
677,-0.020
678,-0.035
679,-0.035
680,-0.040
681,-0.040
682,-0.040
683,-0.035
684,-0.015
685,-0.035
686,-0.030
687,-0.030
688,-0.005
689,-0.005
690,-0.005
691,-0.010
692,-0.005
693,-0.005
694,0.000
695,0.000
696,0.000
697,0.000
698,0.000
699,0.020
700,0.020
701,0.020
702,0.000
703,0.005
704,0.005
705,0.005
706,0.010
707,0.010
708,-0.005
709,-0.005
710,-0.005
711,0.010
712,0.010
713,0.015
714,0.015
715,0.020
716,0.025
717,0.010
718,0.035
719,0.040
720,0.040
721,0.065
722,0.050
723,0.035
724,0.035
725,0.035
726,0.040
727,0.045
728,0.050
729,0.055
730,0.060
731,0.065
732,0.070
733,0.075
734,0.075
735,0.060
736,0.085
737,0.090
738,0.095
739,0.120
740,0.140
741,0.120
742,0.120
743,0.120
744,0.105
745,0.105
746,0.100
747,0.080
748,0.090
749,0.085
750,0.080
751,0.070
752,0.065
753,0.055
754,0.050
755,0.045
756,0.055
757,0.050
758,0.045
759,0.035
760,0.030
761,0.025
762,0.020
763,0.015
764,0.010
765,0.000
766,-0.020
767,-0.020
768,-0.025
769,-0.025
770,-0.030
771,-0.030
772,-0.035
773,-0.055
774,-0.035
775,-0.055
776,-0.040
777,-0.040
778,-0.040
779,-0.035
780,-0.040
781,-0.040
782,-0.045
783,-0.025
784,-0.030
785,-0.030
786,-0.030
787,-0.050
788,-0.050
789,-0.030
790,-0.030
791,-0.050
792,-0.050
793,-0.055
794,-0.055
795,-0.035
796,-0.035
797,-0.055
798,-0.050
799,-0.035
800,-0.055
801,-0.055
802,-0.055
803,-0.055
804,-0.055
805,-0.060
806,-0.040
807,-0.055
808,-0.060
809,-0.060
810,-0.070
811,-0.080
812,-0.095
813,-0.100
814,-0.095
815,-0.090
816,-0.080
817,-0.080
818,-0.080
819,-0.080
820,-0.090
821,-0.095
822,-0.095
823,-0.090
824,-0.080
825,-0.090
826,-0.095
827,-0.100
828,-0.100
829,-0.100
830,-0.100
831,-0.110
832,-0.110
833,-0.110
834,-0.095
835,-0.090
836,-0.080
837,-0.080
838,-0.080
839,-0.080
840,-0.075
841,-0.075
842,-0.070
843,-0.070
844,-0.060
845,-0.060
846,-0.060
847,-0.060
848,-0.060
849,-0.060
850,-0.060
851,-0.060
852,-0.060
853,-0.055
854,-0.040
855,-0.030
856,-0.015
857,-0.015
858,-0.020
859,-0.035
860,-0.040
861,-0.040
862,-0.050
863,-0.050
864,-0.050
865,-0.050
866,-0.055
867,-0.060
868,-0.060
869,-0.060
870,-0.060
871,-0.070
872,-0.070
873,-0.070
874,-0.060
875,-0.055
876,-0.055
877,-0.060
878,-0.075
879,-0.080
880,-0.075
881,-0.070
882,-0.070
883,-0.070
884,-0.075
885,-0.070
886,-0.070
887,-0.060
888,-0.070
889,-0.075
890,-0.080
891,-0.080
892,-0.075
893,-0.070
894,-0.050
895,-0.075
896,-0.075
897,-0.075
898,-0.095
899,-0.090
900,-0.070
901,-0.090
902,-0.070
903,-0.070
904,-0.070
905,-0.075
906,-0.075
907,-0.090
908,-0.090
909,-0.110
910,-0.090
911,-0.065
912,-0.065
913,-0.065
914,-0.065
915,-0.080
916,-0.075
917,-0.055
918,-0.055
919,-0.055
920,-0.055
921,-0.055
922,-0.070
923,-0.065
924,-0.060
925,-0.060
926,-0.055
927,-0.050
928,-0.050
929,-0.025
930,0.000
931,-0.020
932,-0.020
933,-0.015
934,-0.010
935,-0.005
936,0.000
937,0.000
938,0.005
939,0.030
940,0.030
941,0.030
942,0.025
943,0.005
944,0.005
945,0.045
946,0.050
947,0.025
948,0.005
949,0.005
950,0.010
951,0.005
952,0.005
953,0.005
954,0.010
955,0.010
956,0.030
957,0.010
958,0.005
959,0.005
960,0.005
961,0.005
962,0.005
963,-0.015
964,-0.015
965,0.000
966,-0.025
967,-0.010
968,-0.020
969,-0.040
970,-0.050
971,-0.050
972,-0.055
973,-0.035
974,-0.055
975,-0.080
976,-0.085
977,-0.070
978,-0.075
979,-0.060
980,-0.065
981,-0.090
982,-0.090
983,-0.085
984,-0.085
985,-0.065
986,-0.065
987,-0.085
988,-0.090
989,-0.070
990,-0.070
991,-0.070
992,-0.070
993,-0.065
994,-0.065
995,-0.090
996,-0.075
997,-0.080
998,-0.100
999,-0.090
1000,-0.095
1001,-0.100
1002,-0.110
1003,-0.110
1004,-0.115
1005,-0.130
1006,-0.120
1007,-0.105
1008,-0.060
1009,-0.030
1010,0.000
1011,0.045
1012,0.080
1013,0.155
1014,0.230
1015,0.265
1016,0.330
1017,0.400
1018,0.465
1019,0.540
1020,0.575
1021,0.590
1022,0.580
1023,0.525
1024,0.495
1025,0.410
1026,0.320
1027,0.265
1028,0.235
1029,0.195
1030,0.180
1031,0.125
1032,0.085
1033,0.050
1034,0.015
1035,-0.030
1036,-0.040
1037,-0.010
1038,-0.035
1039,-0.065
1040,-0.045
1041,-0.045
1042,-0.025
1043,-0.025
1044,-0.025
1045,-0.030
1046,-0.035
1047,-0.040
1048,-0.045
1049,-0.045
1050,-0.025
1051,-0.040
1052,-0.065
1053,-0.045
1054,-0.025
1055,-0.045
1056,-0.045
1057,-0.030
1058,-0.025
1059,-0.025
1060,-0.045
1061,-0.045
1062,-0.045
1063,-0.045
1064,-0.065
1065,-0.045
1066,-0.065
1067,-0.060
1068,-0.020
1069,-0.015
1070,-0.030
1071,-0.030
1072,-0.030
1073,-0.030
1074,-0.005
1075,-0.005
1076,0.000
1077,-0.020
1078,-0.020
1079,-0.020
1080,-0.020
1081,-0.040
1082,-0.020
1083,-0.020
1084,-0.020
1085,-0.015
1086,-0.015
1087,0.000
1088,-0.020
1089,-0.020
1090,-0.035
1091,-0.015
1092,-0.015
1093,-0.010
1094,0.010
1095,0.015
1096,0.015
1097,0.015
1098,0.010
1099,0.015
1100,-0.025
1101,0.020
1102,0.000
1103,0.000
1104,-0.020
1105,0.000
1106,0.000
1107,-0.020
1108,0.000
1109,0.020
1110,0.005
1111,0.005
1112,0.025
1113,0.010
1114,-0.010
1115,-0.005
1116,0.015
1117,0.015
1118,0.010
1119,0.030
1120,0.015
1121,0.015
1122,0.000
1123,0.005
1124,0.050
1125,0.035
1126,0.040
1127,0.040
1128,0.045
1129,0.070
1130,0.075
1131,0.075
1132,0.075
1133,0.060
1134,0.065
1135,0.070
1136,0.095
1137,0.100
1138,0.085
1139,0.090
1140,0.115
1141,0.115
1142,0.120
1143,0.145
1144,0.130
1145,0.135
1146,0.140
1147,0.140
1148,0.140
1149,0.140
1150,0.140
1151,0.125
1152,0.125
1153,0.140
1154,0.140
1155,0.110
1156,0.125
1157,0.120
1158,0.110
1159,0.105
1160,0.095
1161,0.090
1162,0.085
1163,0.075
1164,0.070
1165,0.065
1166,0.055
1167,0.050
1168,0.045
1169,0.040
1170,0.035
1171,0.050
1172,0.020
1173,0.000
1174,0.000
1175,0.015
1176,0.015
1177,-0.010
1178,-0.030
1179,-0.035
1180,-0.035
1181,0.005
1182,-0.015
1183,-0.020
1184,0.000
1185,0.000
1186,0.005
1187,0.000
1188,0.000
1189,-0.025
1190,-0.025
1191,-0.030
1192,-0.050
1193,-0.050
1194,-0.050
1195,-0.030
1196,-0.050
1197,-0.050
1198,-0.030
1199,-0.030
1200,-0.055
1201,-0.055
1202,-0.055
1203,-0.055
1204,-0.055
1205,-0.050
1206,-0.055
1207,-0.055
1208,-0.055
1209,-0.055
1210,-0.055
1211,-0.035
1212,-0.040
1213,-0.060
1214,-0.060
1215,-0.060
1216,-0.060
1217,-0.060
1218,-0.055
1219,-0.050
1220,-0.040
1221,-0.040
1222,-0.040
1223,-0.040
1224,-0.035
1225,-0.030
1226,-0.030
1227,-0.030
1228,-0.035
1229,-0.035
1230,-0.035
1231,-0.030
1232,-0.020
1233,-0.020
1234,-0.020
1235,-0.020
1236,-0.020
1237,-0.020
1238,-0.020
1239,-0.030
1240,-0.030
1241,-0.015
1242,0.010
1243,0.020
1244,0.020
1245,0.015
1246,0.010
1247,0.010
1248,0.015
1249,0.015
1250,0.010
1251,0.000
1252,0.000
1253,0.000
1254,0.000
1255,0.010
1256,0.015
1257,0.020
1258,0.020
1259,0.015
1260,0.000
1261,-0.020
1262,-0.030
1263,-0.030
1264,-0.020
1265,-0.020
1266,-0.030
1267,-0.035
1268,-0.035
1269,-0.030
1270,-0.020
1271,-0.020
1272,-0.020
1273,-0.020
1274,-0.015
1275,-0.010
1276,-0.010
1277,-0.020
1278,-0.035
1279,-0.040
1280,-0.040
1281,-0.040
1282,-0.040
1283,-0.040
1284,-0.040
1285,-0.035
1286,-0.035
1287,-0.040
1288,-0.055
1289,-0.060
1290,-0.060
1291,-0.055
1292,-0.050
1293,-0.050
1294,-0.050
1295,-0.030
1296,-0.035
1297,-0.055
1298,-0.035
1299,-0.015
1300,-0.030
1301,-0.030
1302,-0.030
1303,-0.030
1304,-0.030
1305,-0.050
1306,-0.035
1307,-0.055
1308,-0.030
1309,-0.030
1310,-0.050
1311,-0.030
1312,-0.025
1313,-0.025
1314,-0.025
1315,-0.025
1316,-0.020
1317,-0.015
1318,-0.015
1319,-0.015
1320,-0.015
1321,0.005
1322,0.005
1323,0.010
1324,-0.005
1325,0.000
1326,0.000
1327,-0.015
1328,-0.010
1329,0.010
1330,0.015
1331,0.000
1332,0.020
1333,0.020
1334,0.025
1335,0.050
1336,0.055
1337,0.040
1338,0.040
1339,0.025
1340,0.030
1341,0.030
1342,0.030
1343,0.025
1344,0.005
1345,0.005
1346,0.005
1347,0.030
1348,0.045
1349,0.045
1350,0.045
1351,0.030
1352,0.025
1353,0.025
1354,0.025
1355,0.030
1356,0.050
1357,0.030
1358,0.010
1359,0.025
1360,0.045
1361,0.025
1362,0.025
1363,0.025
1364,0.025
1365,0.045
1366,0.040
1367,0.035
1368,0.010
1369,0.000
1370,-0.020
1371,-0.010
1372,-0.010
1373,0.005
1374,0.005
1375,-0.015
1376,-0.020
1377,-0.025
1378,-0.030
1379,-0.035
1380,-0.060
1381,-0.045
1382,-0.050
1383,-0.070
1384,-0.065
1385,-0.045
1386,-0.045
1387,-0.045
1388,-0.045
1389,-0.070
1390,-0.070
1391,-0.050
1392,-0.070
1393,-0.050
1394,-0.045
1395,-0.045
1396,-0.070
1397,-0.075
1398,-0.080
1399,-0.060
1400,-0.070
1401,-0.075
1402,-0.080
1403,-0.090
1404,-0.110
1405,-0.095
1406,-0.090
1407,-0.100
1408,-0.065
1409,-0.040
1410,-0.010
1411,0.020
1412,0.065
1413,0.120
1414,0.155
1415,0.210
1416,0.245
1417,0.290
1418,0.380
1419,0.445
1420,0.480
1421,0.535
1422,0.570
1423,0.580
1424,0.525
1425,0.475
1426,0.390
1427,0.300
1428,0.265
1429,0.215
1430,0.175
1431,0.140
1432,0.105
1433,0.065
1434,0.050
1435,0.015
1436,-0.010
1437,-0.020
1438,-0.030
1439,-0.035
1440,-0.045
1441,-0.045
1442,-0.045
1443,-0.045
1444,-0.065
1445,-0.065
1446,-0.070
1447,-0.075
1448,-0.060
1449,-0.065
1450,-0.065
1451,-0.045
1452,-0.040
1453,-0.045
1454,-0.045
1455,-0.045
1456,-0.025
1457,-0.025
1458,-0.050
1459,-0.065
1460,-0.045
1461,-0.065
1462,-0.065
1463,-0.065
1464,-0.065
1465,-0.065
1466,-0.065
1467,-0.045
1468,-0.040
1469,-0.040
1470,-0.035
1471,-0.050
1472,-0.050
1473,-0.030
1474,-0.050
1475,-0.025
1476,-0.005
1477,0.000
1478,0.000
1479,0.000
1480,0.000
1481,-0.020
1482,-0.020
1483,0.000
1484,-0.020
1485,0.000
1486,-0.015
1487,-0.015
1488,-0.020
1489,-0.020
1490,-0.020
1491,-0.015
1492,-0.015
1493,-0.015
1494,-0.010
1495,-0.010
1496,-0.005
1497,0.015
1498,-0.025
1499,-0.010
1500,-0.005
1501,0.015
1502,0.020
1503,0.000
1504,0.000
1505,0.000
1506,0.020
1507,0.040
1508,0.020
1509,0.020
1510,0.020
1511,0.005
1512,0.025
1513,0.025
1514,0.010
1515,0.030
1516,0.035
1517,0.035
1518,0.015
1519,0.010
1520,-0.010
1521,-0.005
1522,0.015
1523,0.040
1524,0.045
1525,0.070
1526,0.075
1527,0.060
1528,0.060
1529,0.045
1530,0.070
1531,0.075
1532,0.075
1533,0.075
1534,0.060
1535,0.065
1536,0.090
1537,0.095
1538,0.100
1539,0.125
1540,0.130
1541,0.115
1542,0.115
1543,0.120
1544,0.125
1545,0.130
1546,0.135
1547,0.140
1548,0.140
1549,0.120
1550,0.140
1551,0.140
1552,0.145
1553,0.145
1554,0.140
1555,0.140
1556,0.130
1557,0.105
1558,0.120
1559,0.130
1560,0.125
1561,0.115
1562,0.090
1563,0.085
1564,0.075
1565,0.070
1566,0.065
1567,0.055
1568,0.030
1569,0.045
1570,0.040
1571,0.035
1572,0.030
1573,0.020
1574,0.000
1575,0.020
1576,0.035
1577,0.035
1578,0.010
1579,0.030
1580,0.025
1581,0.005
1582,0.005
1583,0.005
1584,-0.020
1585,0.000
1586,0.000
1587,0.005
1588,-0.020
1589,-0.020
1590,-0.005
1591,-0.025
1592,-0.010
1593,-0.010
1594,-0.010
1595,-0.010
1596,-0.030
1597,-0.030
1598,-0.010
1599,-0.010
1600,-0.010
1601,-0.015
1602,-0.035
1603,-0.055
1604,-0.035
1605,-0.015
1606,-0.030
1607,-0.015
1608,-0.015
1609,0.005
1610,-0.015
1611,-0.015
1612,-0.015
1613,-0.040
1614,-0.060
1615,-0.050
1616,-0.040
1617,-0.040
1618,-0.040
1619,-0.040
1620,-0.040
1621,-0.040
1622,-0.040
1623,-0.040
1624,-0.040
1625,-0.040
1626,-0.040
1627,-0.050
1628,-0.055
1629,-0.070
1630,-0.075
1631,-0.070
1632,-0.055
1633,-0.040
1634,-0.040
1635,-0.040
1636,-0.050
1637,-0.050
1638,-0.050
1639,-0.040
1640,-0.040
1641,-0.040
1642,-0.035
1643,-0.030
1644,-0.030
1645,-0.035
1646,-0.035
1647,-0.020
1648,-0.010
1649,-0.010
1650,-0.010
1651,0.000
1652,0.015
1653,0.015
1654,0.015
1655,0.010
1656,0.010
1657,0.000
1658,0.010
1659,0.015
1660,0.020
1661,0.015
1662,0.010
1663,0.010
1664,0.015
1665,0.015
1666,0.010
1667,-0.010
1668,-0.015
1669,-0.015
1670,-0.010
1671,-0.010
1672,-0.015
1673,-0.020
1674,-0.020
1675,-0.020
1676,-0.020
1677,-0.030
1678,-0.030
1679,-0.030
1680,-0.030
1681,-0.035
1682,-0.050
1683,-0.050
1684,-0.050
1685,-0.040
1686,-0.040
1687,-0.040
1688,-0.040
1689,-0.040
1690,-0.040
1691,-0.050
1692,-0.055
1693,-0.055
1694,-0.050
1695,-0.040
1696,-0.040
1697,-0.050
1698,-0.055
1699,-0.070
1700,-0.055
1701,-0.075
1702,-0.035
1703,-0.055
1704,-0.035
1705,-0.050
1706,-0.050
1707,-0.050
1708,-0.050
1709,-0.030
1710,-0.030
1711,-0.035
1712,-0.035
1713,-0.050
1714,-0.070
1715,-0.050
1716,-0.030
1717,-0.045
1718,-0.045
1719,-0.025
1720,-0.045
1721,-0.060
1722,-0.055
1723,-0.035
1724,-0.035
1725,-0.035
1726,-0.035
1727,-0.035
1728,-0.050
1729,-0.025
1730,-0.040
1731,-0.020
1732,-0.015
1733,-0.010
1734,-0.030
1735,-0.025
1736,0.000
1737,0.020
1738,0.000
1739,0.025
1740,0.030
1741,0.015
1742,0.020
1743,0.020
1744,0.025
1745,0.050
1746,0.050
1747,0.050
1748,0.045
1749,0.025
1750,0.025
1751,0.025
1752,0.030
1753,0.025
1754,0.045
1755,0.025
1756,0.030
1757,0.045
1758,0.025
1759,0.045
1760,0.030
1761,0.050
1762,0.070
1763,0.070
1764,0.065
1765,0.045
1766,0.045
1767,0.045
1768,0.045
1769,0.045
1770,0.045
1771,0.020
1772,0.015
1773,0.010
1774,0.020
1775,0.000
1776,-0.010
1777,-0.030
1778,-0.035
1779,-0.035
1780,-0.035
1781,-0.020
1782,-0.025
1783,-0.030
1784,-0.035
1785,-0.040
1786,-0.065
1787,-0.050
1788,-0.050
1789,-0.065
1790,-0.065
1791,-0.065
1792,-0.065
1793,-0.065
1794,-0.070
1795,-0.070
1796,-0.050
1797,-0.070
1798,-0.070
1799,-0.065
1800,-0.085
1801,-0.070
1802,-0.055
1803,-0.060
1804,-0.080
1805,-0.070
1806,-0.095
1807,-0.100
1808,-0.090
1809,-0.090
1810,-0.095
1811,-0.090
1812,-0.100
1813,-0.065
1814,-0.060
1815,-0.010
1816,0.040
1817,0.065
1818,0.100
1819,0.155
1820,0.210
1821,0.285
1822,0.370
1823,0.420
1824,0.505
1825,0.560
1826,0.595
1827,0.630
1828,0.620
1829,0.585
1830,0.555
1831,0.490
1832,0.400
1833,0.345
1834,0.275
1835,0.235
1836,0.200
1837,0.165
1838,0.125
1839,0.090
1840,0.055
1841,0.010
1842,0.000
1843,0.010
1844,-0.015
1845,-0.045
1846,-0.045
1847,-0.045
1848,-0.045
1849,-0.045
1850,-0.025
1851,-0.050
1852,-0.055
1853,-0.040
1854,-0.045
1855,-0.065
1856,-0.045
1857,-0.040
1858,-0.065
1859,-0.065
1860,-0.045
1861,-0.045
1862,-0.045
1863,-0.070
1864,-0.065
1865,-0.045
1866,-0.045
1867,-0.045
1868,-0.045
1869,-0.045
1870,-0.045
1871,-0.025
1872,-0.025
1873,-0.020
1874,-0.040
1875,-0.015
1876,-0.050
1877,-0.030
1878,-0.010
1879,-0.030
1880,-0.025
1881,-0.005
1882,-0.020
1883,-0.040
1884,-0.020
1885,0.000
1886,-0.020
1887,-0.040
1888,-0.040
1889,0.000
1890,0.000
1891,0.005
1892,0.005
1893,-0.020
1894,-0.040
1895,0.000
1896,0.005
1897,0.005
1898,0.005
1899,-0.030
1900,-0.030
1901,-0.005
1902,0.015
1903,0.015
1904,0.010
1905,-0.005
1906,-0.025
1907,-0.020
1908,0.000
1909,0.000
1910,-0.020
1911,-0.020
1912,-0.020
1913,0.000
1914,0.020
1915,0.020
1916,0.025
1917,0.025
1918,0.025
1919,0.030
1920,0.030
1921,0.035
1922,0.015
1923,0.015
1924,0.010
1925,0.010
1926,0.015
1927,0.035
1928,0.020
1929,0.025
1930,0.050
1931,0.055
1932,0.060
1933,0.060
1934,0.045
1935,0.030
1936,0.055
1937,0.075
1938,0.075
1939,0.040
1940,0.045
1941,0.050
1942,0.055
1943,0.060
1944,0.065
1945,0.070
1946,0.075
1947,0.095
1948,0.120
1949,0.125
1950,0.130
1951,0.135
1952,0.120
1953,0.100
1954,0.100
1955,0.100
1956,0.100
1957,0.125
1958,0.125
1959,0.120
1960,0.120
1961,0.110
1962,0.105
1963,0.120
1964,0.110
1965,0.105
1966,0.075
1967,0.070
1968,0.085
1969,0.075
1970,0.050
1971,0.045
1972,0.035
1973,0.010
1974,0.025
1975,0.020
1976,-0.005
1977,-0.030
1978,-0.040
1979,-0.020
1980,-0.020
1981,-0.025
1982,-0.025
1983,0.010
1984,-0.010
1985,0.005
1986,-0.015
1987,-0.035
1988,-0.035
1989,-0.040
1990,-0.020
1991,-0.040
1992,-0.035
1993,-0.040
1994,-0.040
1995,-0.045
1996,-0.045
1997,-0.030
1998,-0.050
1999,-0.030
2000,-0.010
2001,-0.010
2002,-0.010
2003,0.010
2004,-0.010
2005,-0.010
2006,-0.015
2007,-0.035
2008,-0.035
2009,-0.055
2010,-0.035
2011,-0.050
2012,-0.035
2013,-0.015
2014,-0.015
2015,-0.015
2016,-0.035
2017,-0.015
2018,-0.040
2019,-0.020
2020,-0.030
2021,-0.035
2022,-0.040
2023,-0.055
2024,-0.055
2025,-0.050
2026,-0.035
2027,-0.030
2028,-0.030
2029,-0.035
2030,-0.040
2031,-0.050
2032,-0.050
2033,-0.050
2034,-0.040
2035,-0.040
2036,-0.040
2037,-0.040
2038,-0.050
2039,-0.050
2040,-0.055
2041,-0.055
2042,-0.060
2043,-0.055
2044,-0.055
2045,-0.055
2046,-0.055
2047,-0.050
2048,-0.050
2049,-0.050
2050,-0.050
2051,-0.040
2052,-0.040
2053,-0.035
2054,-0.030
2055,-0.020
2056,-0.015
2057,0.000
2058,0.000
2059,-0.010
2060,-0.020
2061,-0.020
2062,-0.030
2063,-0.035
2064,-0.035
2065,-0.030
2066,-0.020
2067,-0.020
2068,-0.015
2069,-0.015
2070,-0.015
2071,-0.015
2072,-0.010
2073,0.000
2074,0.000
2075,-0.010
2076,-0.015
2077,-0.030
2078,-0.040
2079,-0.055
2080,-0.055
2081,-0.040
2082,-0.035
2083,-0.035
2084,-0.040
2085,-0.040
2086,-0.040
2087,-0.040
2088,-0.040
2089,-0.035
2090,-0.035
2091,-0.035
2092,-0.040
2093,-0.050
2094,-0.050
2095,-0.050
2096,-0.040
2097,-0.040
2098,-0.040
2099,-0.040
2100,-0.040
2101,-0.050
2102,-0.055
2103,-0.060
2104,-0.055
2105,-0.050
2106,-0.040
2107,-0.040
2108,-0.050
2109,-0.050
2110,-0.035
2111,-0.055
2112,-0.055
2113,-0.055
2114,-0.035
2115,-0.050
2116,-0.050
2117,-0.030
2118,-0.050
2119,-0.030
2120,-0.050
2121,-0.055
2122,-0.055
2123,-0.050
2124,-0.030
2125,-0.010
2126,-0.010
2127,-0.025
2128,-0.045
2129,-0.045
2130,-0.045
2131,-0.040
2132,-0.015
2133,-0.015
2134,-0.035
2135,-0.035
2136,-0.015
2137,-0.015
2138,-0.030
2139,-0.045
2140,-0.020
2141,-0.020
2142,-0.015
2143,-0.010
2144,-0.010
2145,0.015
2146,0.000
2147,0.020
2148,0.040
2149,0.025
2150,0.030
2151,0.035
2152,0.060
2153,0.060
2154,0.065
2155,0.050
2156,0.070
2157,0.050
2158,0.045
2159,0.045
2160,0.065
2161,0.065
2162,0.070
2163,0.065
2164,0.045
2165,0.065
2166,0.070
2167,0.065
2168,0.065
2169,0.045
2170,0.070
2171,0.070
2172,0.070
2173,0.050
2174,0.045
2175,0.045
2176,0.065
2177,0.045
2178,0.025
2179,0.045
2180,0.045
2181,0.040
2182,0.055
2183,0.050
2184,0.040
2185,0.000
2186,0.010
2187,-0.010
2188,-0.035
2189,-0.035
2190,-0.015
2191,-0.020
2192,-0.045
2193,-0.030
2194,-0.035
2195,-0.040
2196,-0.045
2197,-0.050
2198,-0.050
2199,-0.045
2200,-0.045
2201,-0.045
2202,-0.065
2203,-0.065
2204,-0.050
2205,-0.050
2206,-0.070
2207,-0.050
2208,-0.050
2209,-0.065
2210,-0.065
2211,-0.050
2212,-0.055
2213,-0.040
2214,-0.060
2215,-0.050
2216,-0.055
2217,-0.080
2218,-0.070
2219,-0.070
2220,-0.075
2221,-0.110
2222,-0.080
2223,-0.065
2224,-0.040
2225,-0.010
2226,0.000
2227,0.045
2228,0.100
2229,0.175
2230,0.230
2231,0.305
2232,0.370
2233,0.440
2234,0.505
2235,0.580
2236,0.655
2237,0.650
2238,0.660
2239,0.645
2240,0.595
2241,0.530
2242,0.460
2243,0.385
2244,0.335
2245,0.295
2246,0.260
2247,0.225
2248,0.185
2249,0.110
2250,0.095
2251,0.070
2252,0.040
2253,0.010
2254,0.005
2255,-0.005
2256,-0.005
2257,-0.025
2258,-0.045
2259,-0.025
2260,-0.025
2261,-0.030
2262,-0.055
2263,-0.060
2264,-0.065
2265,-0.085
2266,-0.085
2267,-0.080
2268,-0.065
2269,-0.085
2270,-0.065
2271,-0.065
2272,-0.065
2273,-0.070
2274,-0.085
2275,-0.085
2276,-0.065
2277,-0.085
2278,-0.065
2279,-0.065
2280,-0.065
2281,-0.065
2282,-0.065
2283,-0.060
2284,-0.060
2285,-0.035
2286,-0.050
2287,-0.050
2288,-0.050
2289,-0.050
2290,-0.045
2291,-0.045
2292,-0.060
2293,-0.060
2294,-0.060
2295,-0.060
2296,-0.060
2297,-0.060
2298,-0.040
2299,-0.060
2300,-0.040
2301,-0.055
2302,-0.035
2303,-0.040
2304,-0.040
2305,-0.060
2306,-0.035
2307,-0.035
2308,-0.015
2309,-0.030
2310,-0.030
2311,-0.025
2312,-0.045
2313,-0.045
2314,-0.050
2315,-0.025
2316,-0.045
2317,-0.020
2318,-0.020
2319,-0.020
2320,-0.020
2321,0.000
2322,-0.020
2323,-0.020
2324,-0.020
2325,-0.020
2326,-0.035
2327,-0.035
2328,-0.035
2329,-0.030
2330,-0.010
2331,-0.005
2332,-0.005
2333,-0.005
2334,0.010
2335,-0.010
2336,-0.005
2337,-0.005
2338,-0.020
2339,0.005
2340,-0.010
2341,-0.005
2342,0.000
2343,0.000
2344,0.005
2345,0.010
2346,0.015
2347,0.015
2348,0.015
2349,0.020
2350,0.025
2351,0.030
2352,0.055
2353,0.080
2354,0.065
2355,0.070
2356,0.075
2357,0.075
2358,0.080
2359,0.085
2360,0.090
2361,0.095
2362,0.080
2363,0.080
2364,0.080
2365,0.080
2366,0.100
2367,0.125
2368,0.105
2369,0.100
2370,0.120
2371,0.110
2372,0.105
2373,0.100
2374,0.070
2375,0.065
2376,0.075
2377,0.050
2378,0.045
2379,0.035
2380,0.030
2381,0.025
2382,0.015
2383,0.010
2384,0.005
2385,0.000
2386,-0.005
2387,-0.010
2388,-0.020
2389,-0.040
2390,-0.040
2391,-0.025
2392,-0.025
2393,-0.030
2394,-0.010
2395,-0.035
2396,-0.055
2397,-0.035
2398,-0.035
2399,-0.040
2400,-0.060
2401,-0.060
2402,-0.055
2403,-0.060
2404,-0.060
2405,-0.065
2406,-0.065
2407,-0.070
2408,-0.050
2409,-0.050
2410,-0.070
2411,-0.050
2412,-0.070
2413,-0.070
2414,-0.070
2415,-0.050
2416,-0.055
2417,-0.055
2418,-0.075
2419,-0.075
2420,-0.075
2421,-0.090
2422,-0.075
2423,-0.075
2424,-0.095
2425,-0.075
2426,-0.055
2427,-0.055
2428,-0.080
2429,-0.080
2430,-0.090
2431,-0.090
2432,-0.080
2433,-0.080
2434,-0.080
2435,-0.080
2436,-0.080
2437,-0.075
2438,-0.070
2439,-0.060
2440,-0.060
2441,-0.060
2442,-0.070
2443,-0.075
2444,-0.090
2445,-0.090
2446,-0.090
2447,-0.080
2448,-0.090
2449,-0.095
2450,-0.100
2451,-0.100
2452,-0.095
2453,-0.090
2454,-0.080
2455,-0.080
2456,-0.080
2457,-0.080
2458,-0.080
2459,-0.080
2460,-0.080
2461,-0.080
2462,-0.075
2463,-0.070
2464,-0.060
2465,-0.055
2466,-0.055
2467,-0.055
2468,-0.055
2469,-0.050
2470,-0.040
2471,-0.040
2472,-0.050
2473,-0.050
2474,-0.050
2475,-0.040
2476,-0.040
2477,-0.040
2478,-0.050
2479,-0.050
2480,-0.050
2481,-0.040
2482,-0.050
2483,-0.050
2484,-0.050
2485,-0.040
2486,-0.040
2487,-0.050
2488,-0.050
2489,-0.050
2490,-0.040
2491,-0.050
2492,-0.055
2493,-0.060
2494,-0.055
2495,-0.050
2496,-0.040
2497,-0.050
2498,-0.060
2499,-0.070
2500,-0.070
2501,-0.070
2502,-0.075
2503,-0.075
2504,-0.070
2505,-0.060
2506,-0.070
2507,-0.075
2508,-0.075
2509,-0.070
2510,-0.070
2511,-0.075
2512,-0.060
2513,-0.075
2514,-0.075
2515,-0.055
2516,-0.035
2517,-0.070
2518,-0.050
2519,-0.050
2520,-0.050
2521,-0.050
2522,-0.070
2523,-0.075
2524,-0.055
2525,-0.050
2526,-0.050
2527,-0.050
2528,-0.050
2529,-0.065
2530,-0.065
2531,-0.065
2532,-0.065
2533,-0.060
2534,-0.035
2535,-0.015
2536,-0.015
2537,-0.055
2538,-0.055
2539,-0.055
2540,-0.050
2541,-0.045
2542,-0.020
2543,-0.040
2544,-0.035
2545,-0.030
2546,-0.030
2547,-0.025
2548,-0.020
2549,0.000
2550,0.000
2551,0.005
2552,0.010
2553,0.015
2554,0.020
2555,0.040
2556,0.025
2557,0.030
2558,0.030
2559,0.010
2560,0.025
2561,0.025
2562,0.045
2563,0.045
2564,0.030
2565,0.025
2566,0.005
2567,0.025
2568,0.050
2569,0.045
2570,0.025
2571,0.025
2572,0.030
2573,0.030
2574,0.010
2575,0.030
2576,0.025
2577,0.005
2578,0.025
2579,0.065
2580,0.045
2581,0.025
2582,0.045
2583,0.040
2584,0.015
2585,0.010
2586,0.020
2587,0.000
2588,-0.010
2589,-0.010
2590,0.005
2591,0.005
2592,-0.015
2593,-0.040
2594,-0.045
2595,-0.030
2596,-0.055
2597,-0.040
2598,-0.045
2599,-0.050
2600,-0.050
2601,-0.045
2602,-0.045
2603,-0.025
2604,-0.065
2605,-0.065
2606,-0.050
2607,-0.050
2608,-0.050
2609,-0.050
2610,-0.050
2611,-0.045
2612,-0.045
2613,-0.050
2614,-0.035
2615,-0.040
2616,-0.060
2617,-0.070
2618,-0.075
2619,-0.080
2620,-0.070
2621,-0.090
2622,-0.095
2623,-0.090
2624,-0.080
2625,-0.065
2626,-0.040
2627,-0.010
2628,0.040
2629,0.085
2630,0.160
2631,0.215
2632,0.250
2633,0.285
2634,0.350
2635,0.420
2636,0.485
2637,0.560
2638,0.595
2639,0.590
2640,0.560
2641,0.525
2642,0.455
2643,0.390
2644,0.320
2645,0.265
2646,0.215
2647,0.195
2648,0.180
2649,0.125
2650,0.085
2651,0.050
2652,-0.005
2653,-0.030
2654,-0.020
2655,-0.010
2656,-0.035
2657,-0.025
2658,-0.025
2659,-0.045
2660,-0.045
2661,-0.025
2662,-0.045
2663,-0.030
2664,-0.015
2665,-0.020
2666,-0.025
2667,-0.005
2668,-0.005
2669,0.000
2670,-0.025
2671,-0.045
2672,-0.065
2673,-0.065
2674,-0.045
2675,-0.050
2676,-0.045
2677,-0.045
2678,-0.045
2679,-0.045
2680,-0.045
2681,-0.045
2682,-0.045
2683,-0.065
2684,-0.045
2685,-0.040
2686,-0.020
2687,-0.035
2688,-0.010
2689,-0.010
2690,-0.030
2691,-0.030
2692,-0.005
2693,-0.005
2694,0.000
2695,0.000
2696,-0.020
2697,0.000
2698,0.000
2699,-0.020
2700,-0.020
2701,-0.020
2702,0.000
2703,0.005
2704,0.005
2705,-0.020
2706,-0.020
2707,-0.020
2708,-0.035
2709,-0.035
2710,-0.035
2711,-0.050
2712,-0.030
2713,-0.045
2714,-0.025
2715,-0.045
2716,-0.030
2717,-0.025
2718,-0.025
2719,-0.020
2720,-0.020
2721,0.000
2722,0.020
2723,-0.020
2724,0.000
2725,0.000
2726,0.000
2727,0.000
2728,0.005
2729,0.005
2730,0.005
2731,0.010
2732,0.030
2733,0.035
2734,0.035
2735,0.035
2736,0.030
2737,0.030
2738,0.035
2739,0.035
2740,0.040
2741,0.045
2742,0.030
2743,0.035
2744,0.040
2745,0.060
2746,0.045
2747,0.050
2748,0.075
2749,0.055
2750,0.075
2751,0.080
2752,0.085
2753,0.090
2754,0.095
2755,0.100
2756,0.125
2757,0.110
2758,0.115
2759,0.115
2760,0.120
2761,0.125
2762,0.130
2763,0.135
2764,0.120
2765,0.120
2766,0.120
2767,0.120
2768,0.140
2769,0.125
2770,0.145
2771,0.140
2772,0.140
2773,0.150
2774,0.145
2775,0.120
2776,0.090
2777,0.065
2778,0.075
2779,0.070
2780,0.085
2781,0.055
2782,0.050
2783,0.045
2784,0.055
2785,0.070
2786,0.065
2787,0.060
2788,0.035
2789,0.010
2790,-0.020
2791,-0.020
2792,-0.020
2793,-0.025
2794,-0.025
2795,-0.030
2796,-0.030
2797,-0.035
2798,-0.015
2799,-0.035
2800,-0.035
2801,-0.040
2802,-0.040
2803,-0.040
2804,-0.035
2805,-0.040
2806,-0.060
2807,-0.045
2808,-0.045
2809,-0.030
2810,-0.030
2811,-0.030
2812,-0.030
2813,-0.030
2814,-0.030
2815,-0.050
2816,-0.050
2817,-0.070
2818,-0.055
2819,-0.055
2820,-0.055
2821,-0.055
2822,-0.055
2823,-0.050
2824,-0.055
2825,-0.075
2826,-0.055
2827,-0.055
2828,-0.055
2829,-0.075
2830,-0.060
2831,-0.060
2832,-0.060
2833,-0.060
2834,-0.055
2835,-0.050
2836,-0.040
2837,-0.040
2838,-0.040
2839,-0.040
2840,-0.035
2841,-0.030
2842,-0.020
2843,-0.030
2844,-0.030
2845,-0.030
2846,-0.020
2847,-0.020
2848,-0.030
2849,-0.040
2850,-0.050
2851,-0.055
2852,-0.050
2853,-0.050
2854,-0.040
2855,-0.035
2856,-0.030
2857,-0.020
2858,-0.020
2859,-0.020
2860,-0.020
2861,-0.020
2862,-0.035
2863,-0.040
2864,-0.040
2865,-0.035
2866,-0.030
2867,-0.030
2868,-0.020
2869,-0.030
2870,-0.035
2871,-0.040
2872,-0.040
2873,-0.050
2874,-0.055
2875,-0.060
2876,-0.060
2877,-0.050
2878,-0.035
2879,-0.030
2880,-0.035
2881,-0.050
2882,-0.055
2883,-0.055
2884,-0.050
2885,-0.050
2886,-0.055
2887,-0.060
2888,-0.060
2889,-0.060
2890,-0.060
2891,-0.060
2892,-0.060
2893,-0.060
2894,-0.060
2895,-0.060
2896,-0.060
2897,-0.060
2898,-0.060
2899,-0.070
2900,-0.075
2901,-0.075
2902,-0.070
2903,-0.070
2904,-0.070
2905,-0.070
2906,-0.060
2907,-0.060
2908,-0.060
2909,-0.055
2910,-0.050
2911,-0.020
2912,-0.035
2913,-0.055
2914,-0.075
2915,-0.055
2916,-0.050
2917,-0.070
2918,-0.050
2919,-0.050
2920,-0.050
2921,-0.070
2922,-0.075
2923,-0.075
2924,-0.070
2925,-0.050
2926,-0.050
2927,-0.050
2928,-0.045
2929,-0.045
2930,-0.045
2931,-0.065
2932,-0.060
2933,-0.055
2934,-0.055
2935,-0.055
2936,-0.035
2937,-0.055
2938,-0.055
2939,-0.050
2940,-0.005
2941,-0.020
2942,-0.040
2943,-0.015
2944,0.010
2945,-0.010
2946,-0.005
2947,-0.020
2948,-0.020
2949,-0.020
2950,0.005
2951,0.030
2952,0.035
2953,0.020
2954,0.020
2955,0.025
2956,0.050
2957,0.050
2958,0.050
2959,0.045
2960,0.025
2961,0.045
2962,0.025
2963,0.030
2964,0.045
2965,0.045
2966,0.025
2967,0.030
2968,0.045
2969,0.045
2970,0.025
2971,0.050
2972,0.050
2973,0.030
2974,0.030
2975,0.025
2976,0.025
2977,0.025
2978,0.045
2979,0.045
2980,0.045
2981,0.045
2982,0.040
2983,0.055
2984,0.050
2985,0.020
2986,0.000
2987,-0.010
2988,-0.010
2989,-0.015
2990,0.005
2991,0.005
2992,0.000
2993,-0.005
2994,-0.010
2995,-0.015
2996,0.000
2997,-0.005
2998,-0.010
2999,-0.010
3000,-0.005
3001,-0.005
3002,0.015
3003,-0.005
3004,-0.005
3005,-0.030
3006,-0.030
3007,-0.030
3008,-0.030
3009,-0.010
3010,-0.005
3011,-0.025
3012,-0.050
3013,-0.055
3014,-0.040
3015,-0.060
3016,-0.050
3017,-0.055
3018,-0.060
3019,-0.090
3020,-0.090
3021,-0.095
3022,-0.070
3023,-0.060
3024,-0.045
3025,-0.020
3026,0.010
3027,0.040
3028,0.105
3029,0.160
3030,0.215
3031,0.250
3032,0.305
3033,0.390
3034,0.460
3035,0.505
3036,0.560
3037,0.575
3038,0.550
3039,0.520
3040,0.465
3041,0.395
3042,0.330
3043,0.280
3044,0.225
3045,0.195
3046,0.155
3047,0.120
3048,0.085
3049,0.065
3050,0.030
3051,-0.005
3052,-0.030
3053,-0.040
3054,-0.070
3055,-0.055
3056,-0.065
3057,-0.045
3058,-0.045
3059,-0.045
3060,-0.025
3061,-0.045
3062,-0.050
3063,-0.075
3064,-0.040
3065,-0.045
3066,-0.085
3067,-0.065
3068,-0.060
3069,-0.085
3070,-0.085
3071,-0.085
3072,-0.085
3073,-0.085
3074,-0.070
3075,-0.065
3076,-0.065
3077,-0.065
3078,-0.065
3079,-0.065
3080,-0.065
3081,-0.065
3082,-0.065
3083,-0.065
3084,-0.080
3085,-0.080
3086,-0.075
3087,-0.050
3088,-0.050
3089,-0.050
3090,-0.050
3091,-0.065
3092,-0.065
3093,-0.060
3094,-0.060
3095,-0.040
3096,-0.040
3097,-0.040
3098,-0.040
3099,-0.040
3100,-0.040
3101,-0.040
3102,-0.035
3103,-0.035
3104,-0.040
3105,-0.040
3106,-0.040
3107,-0.035
3108,-0.015
3109,-0.015
3110,-0.010
3111,-0.010
3112,0.015
3113,-0.025
3114,-0.025
3115,-0.030
3116,-0.045
3117,-0.025
3118,0.000
3119,0.000
3120,0.000
3121,0.000
3122,-0.020
3123,0.000
3124,0.000
3125,0.000
3126,-0.020
3127,0.005
3128,0.025
3129,0.025
3130,0.010
3131,0.030
3132,0.035
3133,0.035
3134,0.015
3135,-0.010
3136,0.030
3137,0.035
3138,0.035
3139,0.020
3140,0.045
3141,0.030
3142,0.035
3143,0.040
3144,0.040
3145,0.045
3146,0.050
3147,0.075
3148,0.075
3149,0.075
3150,0.080
3151,0.085
3152,0.090
3153,0.095
3154,0.080
3155,0.085
3156,0.090
3157,0.095
3158,0.115
3159,0.120
3160,0.105
3161,0.110
3162,0.095
3163,0.120
3164,0.120
3165,0.120
3166,0.120
3167,0.140
3168,0.125
3169,0.125
3170,0.120
3171,0.100
3172,0.110
3173,0.105
3174,0.080
3175,0.070
3176,0.065
3177,0.055
3178,0.050
3179,0.045
3180,0.055
3181,0.050
3182,0.025
3183,0.035
3184,0.010
3185,0.025
3186,0.020
3187,0.015
3188,0.010
3189,0.020
3190,0.020
3191,0.020
3192,-0.005
3193,-0.005
3194,-0.010
3195,-0.010
3196,-0.015
3197,-0.015
3198,-0.015
3199,-0.015
3200,-0.020
3201,0.000
3202,0.000
3203,0.005
3204,0.000
3205,-0.020
3206,-0.025
3207,-0.025
3208,-0.030
3209,-0.030
3210,-0.030
3211,-0.030
3212,-0.030
3213,-0.030
3214,-0.010
3215,-0.030
3216,-0.030
3217,-0.035
3218,-0.035
3219,-0.035
3220,-0.035
3221,-0.035
3222,-0.010
3223,-0.015
3224,-0.015
3225,-0.015
3226,-0.035
3227,-0.035
3228,-0.055
3229,-0.060
3230,-0.060
3231,-0.050
3232,-0.035
3233,-0.035
3234,-0.035
3235,-0.040
3236,-0.040
3237,-0.040
3238,-0.040
3239,-0.050
3240,-0.050
3241,-0.050
3242,-0.040
3243,-0.050
3244,-0.050
3245,-0.050
3246,-0.040
3247,-0.050
3248,-0.055
3249,-0.060
3250,-0.060
3251,-0.055
3252,-0.050
3253,-0.050
3254,-0.055
3255,-0.060
3256,-0.055
3257,-0.050
3258,-0.050
3259,-0.055
3260,-0.055
3261,-0.050
3262,-0.035
3263,-0.035
3264,-0.035
3265,-0.035
3266,-0.020
3267,-0.015
3268,-0.015
3269,-0.020
3270,-0.020
3271,-0.020
3272,-0.020
3273,-0.020
3274,-0.030
3275,-0.030
3276,-0.030
3277,-0.020
3278,-0.030
3279,-0.030
3280,-0.030
3281,-0.020
3282,-0.015
3283,-0.010
3284,-0.010
3285,-0.015
3286,-0.020
3287,-0.030
3288,-0.030
3289,-0.030
3290,-0.020
3291,-0.020
3292,-0.020
3293,-0.020
3294,-0.020
3295,-0.020
3296,-0.020
3297,-0.020
3298,-0.020
3299,-0.030
3300,-0.035
3301,-0.040
3302,-0.040
3303,-0.040
3304,-0.040
3305,-0.050
3306,-0.055
3307,-0.055
3308,-0.050
3309,-0.040
3310,-0.040
3311,-0.050
3312,-0.055
3313,-0.055
3314,-0.050
3315,-0.040
3316,-0.050
3317,-0.035
3318,-0.055
3319,-0.035
3320,-0.035
3321,-0.055
3322,-0.050
3323,-0.070
3324,-0.070
3325,-0.050
3326,-0.050
3327,-0.050
3328,-0.075
3329,-0.055
3330,-0.070
3331,-0.030
3332,-0.050
3333,-0.070
3334,-0.065
3335,-0.065
3336,-0.045
3337,-0.045
3338,-0.040
3339,-0.035
3340,-0.035
3341,-0.035
3342,-0.055
3343,-0.055
3344,-0.055
3345,-0.050
3346,-0.045
3347,-0.040
3348,-0.040
3349,-0.035
3350,-0.010
3351,-0.010
3352,-0.005
3353,0.000
3354,0.000
3355,0.000
3356,0.005
3357,0.010
3358,-0.005
3359,0.000
3360,0.000
3361,0.025
3362,0.030
3363,0.030
3364,0.030
3365,0.025
3366,0.025
3367,0.025
3368,0.045
3369,0.050
3370,0.045
3371,0.025
3372,0.025
3373,0.050
3374,0.045
3375,0.025
3376,0.005
3377,0.010
3378,0.030
3379,0.030
3380,0.050
3381,0.025
3382,0.025
3383,0.025
3384,0.045
3385,0.045
3386,0.065
3387,0.065
3388,0.040
3389,0.015
3390,0.010
3391,0.020
3392,-0.020
3393,-0.010
3394,0.010
3395,-0.015
3396,-0.015
3397,0.005
3398,0.020
3399,-0.005
3400,-0.010
3401,-0.015
3402,-0.040
3403,-0.025
3404,-0.010
3405,-0.030
3406,-0.045
3407,-0.025
3408,-0.045
3409,-0.045
3410,-0.025
3411,-0.030
3412,-0.050
3413,-0.030
3414,-0.030
3415,-0.030
3416,-0.045
3417,-0.065
3418,-0.050
3419,-0.055
3420,-0.080
3421,-0.060
3422,-0.030
3423,-0.055
3424,-0.080
3425,-0.070
3426,-0.070
3427,-0.095
3428,-0.110
3429,-0.100
3430,-0.065
3431,-0.020
3432,-0.010
3433,0.000
3434,0.065
3435,0.140
3436,0.175
3437,0.230
3438,0.305
3439,0.350
3440,0.460
3441,0.525
3442,0.560
3443,0.615
3444,0.670
3445,0.660
3446,0.625
3447,0.575
3448,0.510
3449,0.460
3450,0.405
3451,0.335
3452,0.295
3453,0.260
3454,0.225
3455,0.185
3456,0.150
3457,0.115
3458,0.070
3459,0.040
3460,0.030
3461,0.025
3462,-0.005
3463,-0.005
3464,-0.005
3465,-0.005
3466,-0.005
3467,-0.005
3468,-0.010
3469,-0.015
3470,-0.020
3471,-0.025
3472,-0.025
3473,-0.025
3474,-0.020
3475,-0.025
3476,-0.005
3477,-0.025
3478,-0.025
3479,-0.025
3480,-0.030
3481,-0.025
3482,-0.025
3483,-0.025
3484,-0.025
3485,-0.005
3486,-0.005
3487,-0.045
3488,-0.025
3489,-0.025
3490,-0.020
3491,-0.020
3492,-0.015
3493,-0.010
3494,-0.010
3495,-0.010
3496,-0.010
3497,-0.025
3498,-0.025
3499,-0.020
3500,-0.020
3501,-0.020
3502,0.000
3503,-0.020
3504,-0.020
3505,-0.040
3506,-0.020
3507,0.000
3508,-0.015
3509,0.005
3510,-0.020
3511,0.000
3512,0.000
3513,-0.015
3514,-0.015
3515,0.005
3516,0.010
3517,0.010
3518,0.015
3519,-0.005
3520,-0.005
3521,0.010
3522,0.015
3523,0.015
3524,0.000
3525,-0.020
3526,0.000
3527,0.040
3528,0.020
3529,0.040
3530,0.040
3531,0.040
3532,0.040
3533,0.045
3534,0.025
3535,0.025
3536,0.050
3537,0.030
3538,0.035
3539,0.035
3540,0.055
3541,0.050
3542,0.030
3543,0.035
3544,0.055
3545,0.060
3546,0.065
3547,0.070
3548,0.075
3549,0.080
3550,0.060
3551,0.065
3552,0.070
3553,0.095
3554,0.075
3555,0.075
3556,0.080
3557,0.085
3558,0.090
3559,0.115
3560,0.120
3561,0.125
3562,0.110
3563,0.115
3564,0.115
3565,0.120
3566,0.105
3567,0.130
3568,0.135
3569,0.140
3570,0.160
3571,0.160
3572,0.140
3573,0.140
3574,0.145
3575,0.145
3576,0.140
3577,0.140
3578,0.130
3579,0.105
3580,0.100
3581,0.090
3582,0.085
3583,0.095
3584,0.090
3585,0.085
3586,0.075
3587,0.050
3588,0.045
3589,0.035
3590,0.010
3591,0.025
3592,0.000
3593,0.015
3594,0.030
3595,0.000
3596,-0.020
3597,0.000
3598,0.015
3599,-0.005
3600,-0.010
3601,-0.030
3602,-0.015
3603,-0.015
3604,-0.035
3605,-0.035
3606,-0.020
3607,0.000
3608,0.000
3609,-0.015
3610,0.000
3611,0.000
3612,-0.005
3613,-0.005
3614,-0.030
3615,-0.030
3616,-0.030
3617,-0.010
3618,-0.010
3619,-0.030
3620,-0.050
3621,-0.050
3622,-0.030
3623,-0.035
3624,-0.035
3625,-0.015
3626,-0.015
3627,-0.015
3628,0.010
3629,-0.015
3630,-0.035
3631,-0.035
3632,-0.015
3633,-0.015
3634,-0.035
3635,-0.040
3636,-0.040
3637,-0.055
3638,-0.060
3639,-0.060
3640,-0.060
3641,-0.055
3642,-0.050
3643,-0.050
3644,-0.055
3645,-0.070
3646,-0.075
3647,-0.080
3648,-0.080
3649,-0.080
3650,-0.080
3651,-0.075
3652,-0.070
3653,-0.070
3654,-0.075
3655,-0.080
3656,-0.080
3657,-0.080
3658,-0.080
3659,-0.080
3660,-0.080
3661,-0.080
3662,-0.080
3663,-0.080
3664,-0.080
3665,-0.090
3666,-0.090
3667,-0.090
3668,-0.090
3669,-0.090
3670,-0.080
3671,-0.075
3672,-0.070
3673,-0.060
3674,-0.055
3675,-0.055
3676,-0.060
3677,-0.060
3678,-0.055
3679,-0.055
3680,-0.050
3681,-0.050
3682,-0.050
3683,-0.055
3684,-0.055
3685,-0.055
3686,-0.050
3687,-0.050
3688,-0.040
3689,-0.040
3690,-0.050
3691,-0.055
3692,-0.060
3693,-0.055
3694,-0.040
3695,-0.035
3696,-0.040
3697,-0.055
3698,-0.060
3699,-0.055
3700,-0.055
3701,-0.055
3702,-0.060
3703,-0.060
3704,-0.060
3705,-0.060
3706,-0.060
3707,-0.070
3708,-0.075
3709,-0.090
3710,-0.090
3711,-0.090
3712,-0.075
3713,-0.075
3714,-0.070
3715,-0.070
3716,-0.060
3717,-0.060
3718,-0.070
3719,-0.075
3720,-0.080
3721,-0.090
3722,-0.095
3723,-0.080
3724,-0.095
3725,-0.075
3726,-0.095
3727,-0.095
3728,-0.090
3729,-0.090
3730,-0.090
3731,-0.070
3732,-0.090
3733,-0.090
3734,-0.075
3735,-0.095
3736,-0.090
3737,-0.090
3738,-0.090
3739,-0.090
3740,-0.085
3741,-0.085
3742,-0.085
3743,-0.105
3744,-0.080
3745,-0.075
3746,-0.075
3747,-0.075
3748,-0.075
3749,-0.075
3750,-0.055
3751,-0.050
3752,-0.045
3753,-0.040
3754,-0.060
3755,-0.055
3756,-0.050
3757,-0.050
3758,-0.045
3759,-0.040
3760,-0.020
3761,-0.020
3762,-0.015
3763,-0.010
3764,0.015
3765,0.040
3766,0.040
3767,0.025
3768,0.010
3769,0.010
3770,0.010
3771,0.005
3772,0.005
3773,0.005
3774,0.005
3775,-0.010
3776,0.005
3777,0.005
3778,0.025
3779,0.010
3780,0.005
3781,0.005
3782,0.025
3783,0.030
3784,0.010
3785,-0.010
3786,-0.010
3787,-0.015
3788,-0.015
3789,0.005
3790,0.005
3791,0.005
3792,0.005
3793,0.005
3794,0.000
3795,-0.005
3796,-0.010
3797,-0.020
3798,-0.040
3799,-0.050
3800,-0.050
3801,-0.055
3802,-0.055
3803,-0.055
3804,-0.060
3805,-0.065
3806,-0.070
3807,-0.075
3808,-0.080
3809,-0.105
3810,-0.110
3811,-0.090
3812,-0.085
3813,-0.085
3814,-0.065
3815,-0.085
3816,-0.065
3817,-0.050
3818,-0.050
3819,-0.070
3820,-0.090
3821,-0.090
3822,-0.085
3823,-0.065
3824,-0.070
3825,-0.075
3826,-0.100
3827,-0.100
3828,-0.130
3829,-0.115
3830,-0.120
3831,-0.130
3832,-0.130
3833,-0.135
3834,-0.110
3835,-0.100
3836,-0.085
3837,-0.080
3838,-0.050
3839,-0.020
3840,0.025
3841,0.100
3842,0.175
3843,0.230
3844,0.265
3845,0.350
3846,0.440
3847,0.505
3848,0.560
3849,0.615
3850,0.630
3851,0.620
3852,0.585
3853,0.515
3854,0.450
3855,0.360
3856,0.285
3857,0.235
3858,0.175
3859,0.160
3860,0.125
3861,0.085
3862,0.050
3863,-0.005
3864,-0.030
3865,-0.040
3866,-0.050
3867,-0.055
3868,-0.045
3869,-0.045
3870,-0.045
3871,-0.045
3872,-0.045
3873,-0.045
3874,-0.050
3875,-0.055
3876,-0.080
3877,-0.085
3878,-0.085
3879,-0.105
3880,-0.080
3881,-0.065
3882,-0.065
3883,-0.085
3884,-0.085
3885,-0.085
3886,-0.090
3887,-0.065
3888,-0.065
3889,-0.065
3890,-0.065
3891,-0.065
3892,-0.065
3893,-0.065
3894,-0.065
3895,-0.065
3896,-0.060
3897,-0.060
3898,-0.055
3899,-0.050
3900,-0.050
3901,-0.050
3902,-0.070
3903,-0.045
3904,-0.045
3905,-0.040
3906,-0.040
3907,-0.040
3908,-0.040
3909,-0.020
3910,-0.020
3911,-0.020
3912,-0.020
3913,-0.020
3914,-0.015
3915,-0.035
3916,-0.020
3917,0.000
3918,-0.020
3919,-0.035
3920,-0.015
3921,-0.035
3922,-0.030
3923,-0.030
3924,-0.025
3925,-0.025
3926,-0.025
3927,-0.030
3928,-0.005
3929,-0.005
3930,0.000
3931,0.000
3932,0.000
3933,0.000
3934,-0.020
3935,-0.020
3936,-0.020
3937,-0.020
3938,-0.020
3939,0.005
3940,0.005
3941,-0.015
3942,-0.010
3943,0.010
3944,-0.005
3945,0.015
3946,-0.005
3947,-0.010
3948,0.010
3949,-0.005
3950,0.015
3951,0.020
3952,0.025
3953,0.030
3954,0.035
3955,0.020
3956,0.020
3957,0.025
3958,0.050
3959,0.035
3960,0.035
3961,0.055
3962,0.040
3963,0.045
3964,0.050
3965,0.055
3966,0.060
3967,0.065
3968,0.070
3969,0.075
3970,0.075
3971,0.080
3972,0.085
3973,0.090
3974,0.095
3975,0.100
3976,0.100
3977,0.100
3978,0.100
3979,0.140
3980,0.145
3981,0.145
3982,0.140
3983,0.120
3984,0.130
3985,0.105
3986,0.100
3987,0.110
3988,0.085
3989,0.075
3990,0.070
3991,0.085
3992,0.075
3993,0.070
3994,0.045
3995,0.035
3996,0.030
3997,0.005
3998,0.020
3999,0.015
4000,0.030
4001,0.020
4002,-0.020
4003,-0.020
4004,-0.005
4005,-0.025
4006,-0.030
4007,-0.030
4008,-0.055
4009,-0.035
4010,-0.035
4011,-0.035
4012,-0.020
4013,-0.040
4014,-0.040
4015,-0.015
4016,-0.020
4017,-0.040
4018,-0.045
4019,-0.045
4020,-0.050
4021,-0.070
4022,-0.050
4023,-0.050
4024,-0.050
4025,-0.050
4026,-0.050
4027,-0.050
4028,-0.050
4029,-0.015
4030,-0.055
4031,-0.055
4032,-0.035
4033,-0.035
4034,-0.050
4035,-0.055
4036,-0.055
4037,-0.035
4038,-0.055
4039,-0.055
4040,-0.075
4041,-0.060
4042,-0.060
4043,-0.060
4044,-0.060
4045,-0.055
4046,-0.055
4047,-0.055
4048,-0.055
4049,-0.055
4050,-0.055
4051,-0.060
4052,-0.055
4053,-0.050
4054,-0.050
4055,-0.055
4056,-0.060
4057,-0.060
4058,-0.060
4059,-0.055
4060,-0.040
4061,-0.035
4062,-0.040
4063,-0.050
4064,-0.040
4065,-0.030
4066,-0.030
4067,-0.030
4068,-0.030
4069,-0.015
4070,-0.015
4071,-0.015
4072,-0.020
4073,-0.015
4074,-0.010
4075,0.000
4076,0.000
4077,0.000
4078,0.000
4079,0.010
4080,0.015
4081,0.020
4082,0.015
4083,0.010
4084,0.010
4085,0.015
4086,0.020
4087,0.020
4088,0.020
4089,0.015
4090,0.000
4091,-0.010
4092,-0.015
4093,-0.020
4094,-0.030
4095,-0.030
4096,-0.020
4097,-0.015
4098,-0.015
4099,-0.015
4100,-0.020
4101,-0.015
4102,-0.015
4103,-0.015
4104,-0.030
4105,-0.035
4106,-0.050
4107,-0.060
4108,-0.075
4109,-0.075
4110,-0.070
4111,-0.060
4112,-0.055
4113,-0.050
4114,-0.050
4115,-0.055
4116,-0.060
4117,-0.060
4118,-0.055
4119,-0.055
4120,-0.055
4121,-0.060
4122,-0.040
4123,-0.055
4124,-0.055
4125,-0.075
4126,-0.095
4127,-0.070
4128,-0.070
4129,-0.070
4130,-0.070
4131,-0.070
4132,-0.050
4133,-0.035
4134,-0.035
4135,-0.030
4136,-0.030
4137,-0.030
4138,-0.050
4139,-0.045
4140,-0.025
4141,-0.025
4142,-0.025
4143,-0.020
4144,-0.015
4145,-0.015
4146,-0.035
4147,-0.035
4148,-0.015
4149,-0.015
4150,-0.010
4151,-0.005
4152,0.000
4153,0.020
4154,0.005
4155,0.010
4156,0.030
4157,0.015
4158,0.020
4159,0.020
4160,0.020
4161,0.025
4162,0.030
4163,0.035
4164,0.040
4165,0.040
4166,0.045
4167,0.030
4168,0.030
4169,0.030
4170,0.065
4171,0.065
4172,0.025
4173,0.005
4174,0.030
4175,0.045
4176,0.045
4177,0.045
4178,0.030
4179,0.045
4180,0.045
4181,0.045
4182,0.050
4183,0.030
4184,0.050
4185,0.030
4186,0.025
4187,0.005
4188,0.025
4189,0.025
4190,0.045
4191,0.025
4192,0.025
4193,0.040
4194,0.015
4195,0.010
4196,0.000
4197,0.020
4198,0.010
4199,0.010
4200,-0.015
4201,-0.015
4202,-0.015
4203,-0.020
4204,-0.025
4205,-0.050
4206,-0.055
4207,-0.060
4208,-0.065
4209,-0.070
4210,-0.050
4211,-0.045
4212,-0.025
4213,-0.025
4214,-0.045
4215,-0.065
4216,-0.070
4217,-0.070
4218,-0.050
4219,-0.070
4220,-0.050
4221,-0.065
4222,-0.065
4223,-0.050
4224,-0.055
4225,-0.060
4226,-0.080
4227,-0.090
4228,-0.115
4229,-0.100
4230,-0.110
4231,-0.130
4232,-0.135
4233,-0.110
4234,-0.100
4235,-0.085
4236,-0.060
4237,-0.030
4238,0.020
4239,0.085
4240,0.120
4241,0.195
4242,0.230
4243,0.285
4244,0.330
4245,0.400
4246,0.465
4247,0.560
4248,0.595
4249,0.570
4250,0.560
4251,0.505
4252,0.435
4253,0.390
4254,0.320
4255,0.245
4256,0.215
4257,0.175
4258,0.140
4259,0.105
4260,0.085
4261,0.050
4262,-0.005
4263,-0.010
4264,-0.020
4265,-0.030
4266,-0.035
4267,-0.045
4268,-0.025
4269,-0.045
4270,-0.025
4271,-0.025
4272,-0.045
4273,-0.030
4274,-0.055
4275,-0.060
4276,-0.065
4277,-0.065
4278,-0.065
4279,-0.060
4280,-0.045
4281,-0.045
4282,-0.045
4283,-0.065
4284,-0.065
4285,-0.050
4286,-0.045
4287,-0.065
4288,-0.045
4289,-0.045
4290,-0.025
4291,-0.045
4292,-0.045
4293,-0.045
4294,-0.045
4295,-0.040
4296,-0.040
4297,-0.015
4298,-0.030
4299,-0.030
4300,-0.030
4301,-0.010
4302,-0.005
4303,-0.025
4304,-0.020
4305,-0.020
4306,-0.020
4307,-0.020
4308,-0.020
4309,-0.020
4310,-0.040
4311,-0.040
4312,-0.040
4313,-0.035
4314,-0.035
4315,-0.020
4316,-0.040
4317,-0.040
4318,-0.035
4319,-0.035
4320,-0.015
4321,-0.010
4322,-0.010
4323,-0.005
4324,0.015
4325,0.015
4326,0.010
4327,-0.005
4328,-0.005
4329,0.000
4330,-0.020
4331,-0.020
4332,-0.020
4333,0.000
4334,0.000
4335,0.000
4336,0.000
4337,0.000
4338,0.025
4339,0.025
4340,0.025
4341,0.010
4342,0.010
4343,0.015
4344,0.035
4345,0.035
4346,0.050
4347,0.030
4348,0.035
4349,0.015
4350,0.020
4351,0.045
4352,0.050
4353,0.055
4354,0.040
4355,0.060
4356,0.065
4357,0.090
4358,0.095
4359,0.095
4360,0.075
4361,0.100
4362,0.105
4363,0.110
4364,0.115
4365,0.120
4366,0.125
4367,0.110
4368,0.115
4369,0.115
4370,0.140
4371,0.145
4372,0.150
4373,0.175
4374,0.160
4375,0.180
4376,0.160
4377,0.140
4378,0.140
4379,0.145
4380,0.145
4381,0.140
4382,0.140
4383,0.130
4384,0.125
4385,0.120
4386,0.110
4387,0.105
4388,0.095
4389,0.110
4390,0.085
4391,0.075
4392,0.070
4393,0.085
4394,0.075
4395,0.070
4396,0.045
4397,0.040
4398,0.015
4399,0.010
4400,0.020
4401,0.020
4402,0.020
4403,0.035
4404,0.015
4405,-0.010
4406,0.010
4407,0.025
4408,0.025
4409,0.045
4410,0.005
4411,0.000
4412,0.000
4413,0.000
4414,0.005
4415,0.000
4416,0.000
4417,-0.005
4418,-0.025
4419,-0.010
4420,-0.010
4421,-0.030
4422,-0.030
4423,-0.050
4424,-0.050
4425,-0.010
4426,-0.010
4427,-0.010
4428,-0.035
4429,-0.035
4430,-0.035
4431,-0.035
4432,-0.015
4433,-0.030
4434,-0.015
4435,-0.015
4436,-0.015
4437,0.005
4438,0.005
4439,-0.015
4440,-0.040
4441,-0.040
4442,-0.055
4443,-0.060
4444,-0.055
4445,-0.050
4446,-0.050
4447,-0.050
4448,-0.050
4449,-0.040
4450,-0.040
4451,-0.040
4452,-0.040
4453,-0.050
4454,-0.055
4455,-0.060
4456,-0.060
4457,-0.060
4458,-0.055
4459,-0.050
4460,-0.040
4461,-0.040
4462,-0.040
4463,-0.040
4464,-0.040
4465,-0.035
4466,-0.030
4467,-0.015
4468,-0.010
4469,0.000
4470,0.000
4471,0.000
4472,0.010
4473,0.015
4474,0.015
4475,0.015
4476,0.015
4477,0.020
4478,0.020
4479,0.020
4480,0.015
4481,0.015
4482,0.015
4483,0.030
4484,0.035
4485,0.040
4486,0.040
4487,0.035
4488,0.030
4489,0.020
4490,0.020
4491,0.020
4492,0.015
4493,0.000
4494,-0.010
4495,-0.010
4496,0.000
4497,0.000
4498,0.000
4499,-0.010
4500,-0.015
4501,-0.020
4502,-0.015
4503,-0.010
4504,0.000
4505,-0.010
4506,-0.015
4507,-0.030
4508,-0.030
4509,-0.030
4510,-0.030
4511,-0.040
4512,-0.055
4513,-0.060
4514,-0.060
4515,-0.055
4516,-0.055
4517,-0.055
4518,-0.055
4519,-0.050
4520,-0.040
4521,-0.040
4522,-0.035
4523,-0.035
4524,-0.035
4525,-0.040
4526,-0.040
4527,-0.040
4528,-0.040
4529,-0.040
4530,-0.050
4531,-0.060
4532,-0.070
4533,-0.055
4534,-0.035
4535,-0.030
4536,-0.030
4537,-0.030
4538,-0.020
4539,-0.020
4540,-0.030
4541,-0.035
4542,-0.050
4543,-0.055
4544,-0.055
4545,-0.055
4546,-0.050
4547,-0.050
4548,-0.040
4549,-0.040
4550,-0.035
4551,-0.030
4552,-0.020
4553,-0.020
4554,-0.020
4555,-0.020
4556,-0.020
4557,-0.020
4558,-0.015
4559,0.000
4560,0.010
4561,0.010
4562,0.000
4563,0.010
4564,0.015
4565,0.030
4566,0.035
4567,0.040
4568,0.050
4569,0.055
4570,0.055
4571,0.050
4572,0.040
4573,0.040
4574,0.040
4575,0.050
4576,0.055
4577,0.055
4578,0.050
4579,0.040
4580,0.050
4581,0.055
4582,0.050
4583,0.035
4584,0.030
4585,0.035
4586,0.040
4587,0.040
4588,0.050
4589,0.050
4590,0.050
4591,0.040
4592,0.040
4593,0.040
4594,0.040
4595,0.035
4596,0.035
4597,0.030
4598,0.030
4599,0.015
4600,0.000
4601,-0.015
4602,-0.030
4603,-0.035
4604,-0.040
4605,-0.035
4606,-0.030
4607,-0.030
4608,-0.030
4609,-0.035
4610,-0.035
4611,-0.035
4612,-0.040
4613,-0.050
4614,-0.060
4615,-0.060
4616,-0.060
4617,-0.055
4618,-0.055
4619,-0.055
4620,-0.055
4621,-0.055
4622,-0.055
4623,-0.060
4624,-0.060
4625,-0.060
4626,-0.060
4627,-0.060
4628,-0.060
4629,-0.060
4630,-0.070
4631,-0.075
4632,-0.090
4633,-0.095
4634,-0.100
4635,-0.100
4636,-0.100
4637,-0.095
4638,-0.080
4639,-0.055
4640,-0.030
4641,0.010
4642,0.040
4643,0.090
4644,0.135
4645,0.195
4646,0.255
4647,0.330
4648,0.390
4649,0.455
4650,0.515
4651,0.575
4652,0.615
4653,0.620
4654,0.600
4655,0.560
4656,0.515
4657,0.460
4658,0.395
4659,0.335
4660,0.290
4661,0.255
4662,0.215
4663,0.160
4664,0.115
4665,0.080
4666,0.055
4667,0.030
4668,0.010
4669,-0.010
4670,-0.015
4671,-0.020
4672,-0.030
4673,-0.035
4674,-0.040
4675,-0.040
4676,-0.050
4677,-0.055
4678,-0.060
4679,-0.055
4680,-0.050
4681,-0.040
4682,-0.040
4683,-0.040
4684,-0.040
4685,-0.050
4686,-0.055
4687,-0.060
4688,-0.060
4689,-0.060
4690,-0.060
4691,-0.060
4692,-0.060
4693,-0.060
4694,-0.060
4695,-0.055
4696,-0.050
4697,-0.035
4698,-0.035
4699,-0.035
4700,-0.035
4701,-0.030
4702,-0.020
4703,-0.020
4704,-0.020
4705,-0.020
4706,-0.020
4707,-0.020
4708,-0.020
4709,-0.030
4710,-0.035
4711,-0.035
4712,-0.030
4713,-0.020
4714,-0.020
4715,-0.020
4716,-0.030
4717,-0.030
4718,-0.030
4719,-0.020
4720,-0.020
4721,-0.015
4722,-0.010
4723,-0.010
4724,-0.015
4725,-0.020
4726,-0.020
4727,-0.015
4728,-0.015
4729,-0.015
4730,-0.020
4731,-0.015
4732,-0.015
4733,-0.015
4734,-0.020
4735,-0.020
4736,-0.020
4737,-0.020
4738,-0.015
4739,-0.010
4740,0.000
4741,0.000
4742,0.010
4743,0.015
4744,0.020
4745,0.020
4746,0.020
4747,0.020
4748,0.020
4749,0.020
4750,0.030
4751,0.035
4752,0.050
4753,0.055
4754,0.060
4755,0.055
4756,0.050
4757,0.040
4758,0.040
4759,0.040
4760,0.050
4761,0.055
4762,0.060
4763,0.060
4764,0.060
4765,0.070
4766,0.075
4767,0.080
4768,0.080
4769,0.090
4770,0.095
4771,0.110
4772,0.110
4773,0.110
4774,0.110
4775,0.115
4776,0.120
4777,0.115
4778,0.110
4779,0.100
4780,0.110
4781,0.120
4782,0.130
4783,0.130
4784,0.120
4785,0.120
4786,0.120
4787,0.115
4788,0.100
4789,0.080
4790,0.070
4791,0.060
4792,0.060
4793,0.060
4794,0.055
4795,0.050
4796,0.040
4797,0.035
4798,0.030
4799,0.020
4800,0.020
4801,0.015
4802,0.010
4803,0.000
4804,-0.010
4805,-0.015
4806,-0.020
4807,-0.020
4808,-0.015
4809,-0.015
4810,-0.020
4811,-0.030
4812,-0.035
4813,-0.030
4814,-0.030
4815,-0.030
4816,-0.035
4817,-0.035
4818,-0.035
4819,-0.030
4820,-0.030
4821,-0.020
4822,-0.020
4823,-0.020
4824,-0.020
4825,-0.020
4826,-0.020
4827,-0.020
4828,-0.020
4829,-0.020
4830,-0.030
4831,-0.035
4832,-0.040
4833,-0.040
4834,-0.040
4835,-0.040
4836,-0.040
4837,-0.040
4838,-0.035
4839,-0.035
4840,-0.035
4841,-0.050
4842,-0.055
4843,-0.070
4844,-0.070
4845,-0.070
4846,-0.055
4847,-0.050
4848,-0.050
4849,-0.055
4850,-0.060
4851,-0.055
4852,-0.050
4853,-0.040
4854,-0.040
4855,-0.050
4856,-0.055
4857,-0.060
4858,-0.060
4859,-0.060
4860,-0.060
4861,-0.060
4862,-0.070
4863,-0.075
4864,-0.080
4865,-0.080
4866,-0.080
4867,-0.080
4868,-0.080
4869,-0.080
4870,-0.080
4871,-0.075
4872,-0.070
4873,-0.060
4874,-0.060
4875,-0.055
4876,-0.050
4877,-0.040
4878,-0.040
4879,-0.040
4880,-0.040
4881,-0.040
4882,-0.035
4883,-0.030
4884,-0.030
4885,-0.030
4886,-0.030
4887,-0.015
4888,-0.010
4889,0.000
4890,0.000
4891,-0.010
4892,-0.015
4893,-0.020
4894,-0.020
4895,-0.015
4896,-0.015
4897,-0.015
4898,-0.020
4899,-0.020
4900,-0.020
4901,-0.020
4902,-0.020
4903,-0.020
4904,-0.030
4905,-0.030
4906,-0.035
4907,-0.035
4908,-0.040
4909,-0.040
4910,-0.040
4911,-0.040
4912,-0.040
4913,-0.040
4914,-0.040
4915,-0.040
4916,-0.040
4917,-0.040
4918,-0.040
4919,-0.050
4920,-0.055
4921,-0.070
4922,-0.075
4923,-0.075
4924,-0.070
4925,-0.060
4926,-0.060
4927,-0.060
4928,-0.060
4929,-0.055
4930,-0.055
4931,-0.060
4932,-0.075
4933,-0.080
4934,-0.075
4935,-0.070
4936,-0.060
4937,-0.060
4938,-0.060
4939,-0.060
4940,-0.060
4941,-0.060
4942,-0.060
4943,-0.070
4944,-0.070
4945,-0.070
4946,-0.060
4947,-0.055
4948,-0.060
4949,-0.070
4950,-0.080
4951,-0.075
4952,-0.060
4953,-0.055
4954,-0.055
4955,-0.055
4956,-0.055
4957,-0.050
4958,-0.050
4959,-0.040
4960,-0.050
4961,-0.050
4962,-0.050
4963,-0.050
4964,-0.055
4965,-0.055
4966,-0.050
4967,-0.040
4968,-0.035
4969,-0.030
4970,-0.020
4971,-0.015
4972,-0.010
4973,0.010
4974,0.015
4975,0.015
4976,0.015
4977,0.015
4978,0.020
4979,0.030
4980,0.035
4981,0.040
4982,0.035
4983,0.030
4984,0.030
4985,0.035
4986,0.040
4987,0.040
4988,0.035
4989,0.030
4990,0.020
4991,0.030
4992,0.035
4993,0.040
4994,0.040
4995,0.040
4996,0.035
4997,0.035
4998,0.035
4999,0.040
