'sample interval','III'
'0.002 sec','mV'
0,0.040
1,0.020
2,0.020
3,0.025
4,0.040
5,0.040
6,0.035
7,0.035
8,0.030
9,0.020
10,0.010
11,0.010
12,0.015
13,0.020
14,0.020
15,0.020
16,0.015
17,0.020
18,0.025
19,0.035
20,0.030
21,0.020
22,0.030
23,0.030
24,0.020
25,0.010
26,0.020
27,0.030
28,0.025
29,0.010
30,0.000
31,-0.005
32,-0.005
33,-0.005
34,0.000
35,0.000
36,0.000
37,0.010
38,0.015
39,0.020
40,0.020
41,0.010
42,0.005
43,0.000
44,0.000
45,0.000
46,0.005
47,0.010
48,0.020
49,0.020
50,0.015
51,0.010
52,0.000
53,0.005
54,0.010
55,0.030
56,0.025
57,0.025
58,0.015
59,0.010
60,0.000
61,0.000
62,-0.015
63,-0.020
64,-0.015
65,0.005
66,0.020
67,0.020
68,0.030
69,0.025
70,0.025
71,0.035
72,0.035
73,0.035
74,0.020
75,0.020
76,0.020
77,0.010
78,0.000
79,0.000
80,0.000
81,0.010
82,0.005
83,0.005
84,0.005
85,0.010
86,0.025
87,0.035
88,0.035
89,0.020
90,0.015
91,0.020
92,0.035
93,0.035
94,0.020
95,0.010
96,0.005
97,0.010
98,0.020
99,0.030
100,0.040
101,0.050
102,0.055
103,0.050
104,0.045
105,0.040
106,0.035
107,0.035
108,0.040
109,0.050
110,0.050
111,0.060
112,0.055
113,0.045
114,0.030
115,0.015
116,0.015
117,0.015
118,0.020
119,0.020
120,0.020
121,0.020
122,0.025
123,0.030
124,0.045
125,0.045
126,0.050
127,0.045
128,0.040
129,0.030
130,0.020
131,0.020
132,0.020
133,0.020
134,0.020
135,0.020
136,0.020
137,0.020
138,0.020
139,0.015
140,0.015
141,0.015
142,0.020
143,0.015
144,0.015
145,0.020
146,0.025
147,0.025
148,0.015
149,0.005
150,0.010
151,0.020
152,0.035
153,0.035
154,0.030
155,0.010
156,0.000
157,-0.010
158,-0.020
159,-0.020
160,-0.020
161,-0.010
162,-0.005
163,0.005
164,0.005
165,0.005
166,0.005
167,0.010
168,0.015
169,0.010
170,0.010
171,0.005
172,0.005
173,0.005
174,0.010
175,0.015
176,0.010
177,0.010
178,0.015
179,0.020
180,0.010
181,0.025
182,0.035
183,0.040
184,0.035
185,0.035
186,0.035
187,0.020
188,0.015
189,0.000
190,-0.005
191,-0.030
192,-0.030
193,-0.030
194,-0.035
195,-0.020
196,-0.015
197,0.005
198,0.015
199,0.025
200,0.015
201,-0.035
202,-0.120
203,-0.210
204,-0.280
205,-0.305
206,-0.300
207,-0.265
208,-0.235
209,-0.200
210,-0.180
211,-0.170
212,-0.160
213,-0.150
214,-0.125
215,-0.085
216,-0.040
217,-0.015
218,-0.005
219,-0.015
220,-0.020
221,-0.010
222,0.000
223,0.010
224,0.010
225,0.005
226,0.010
227,0.020
228,0.030
229,0.035
230,0.025
231,0.010
232,0.000
233,0.000
234,0.010
235,0.010
236,0.015
237,0.015
238,0.020
239,0.030
240,0.040
241,0.045
242,0.040
243,0.035
244,0.035
245,0.040
246,0.040
247,0.035
248,0.030
249,0.010
250,0.000
251,-0.015
252,-0.010
253,0.000
254,0.030
255,0.040
256,0.045
257,0.030
258,0.020
259,0.010
260,0.010
261,0.010
262,0.030
263,0.035
264,0.035
265,0.030
266,0.020
267,0.015
268,0.000
269,-0.005
270,-0.005
271,0.005
272,0.015
273,0.020
274,0.020
275,0.020
276,0.015
277,0.015
278,0.015
279,0.030
280,0.030
281,0.020
282,0.005
283,0.015
284,0.020
285,0.020
286,0.005
287,-0.010
288,-0.010
289,0.000
290,0.005
291,0.010
292,0.005
293,0.010
294,0.010
295,0.010
296,0.005
297,0.000
298,-0.005
299,-0.005
300,-0.005
301,0.000
302,-0.010
303,-0.005
304,-0.010
305,-0.010
306,-0.035
307,-0.045
308,-0.060
309,-0.065
310,-0.070
311,-0.045
312,-0.025
313,-0.015
314,-0.030
315,-0.030
316,-0.025
317,-0.025
318,-0.030
319,-0.030
320,-0.020
321,-0.015
322,-0.020
323,-0.025
324,-0.025
325,-0.030
326,-0.030
327,-0.035
328,-0.035
329,-0.040
330,-0.035
331,-0.035
332,-0.025
333,-0.025
334,-0.020
335,-0.015
336,-0.010
337,0.000
338,0.000
339,0.000
340,0.000
341,0.000
342,0.000
343,0.010
344,0.025
345,0.040
346,0.035
347,0.035
348,0.025
349,0.025
350,0.020
351,0.020
352,0.025
353,0.035
354,0.035
355,0.030
356,0.020
357,0.025
358,0.035
359,0.050
360,0.045
361,0.040
362,0.030
363,0.030
364,0.035
365,0.030
366,0.045
367,0.040
368,0.030
369,0.015
370,0.015
371,0.020
372,0.025
373,0.025
374,0.030
375,0.030
376,0.030
377,0.020
378,0.020
379,0.025
380,0.030
381,0.030
382,0.020
383,0.020
384,0.020
385,0.020
386,0.030
387,0.030
388,0.030
389,0.020
390,0.010
391,0.010
392,0.005
393,0.010
394,0.015
395,0.020
396,0.025
397,0.025
398,0.025
399,0.020
400,0.020
401,0.010
402,0.010
403,0.005
404,0.005
405,0.000
406,0.000
407,0.000
408,0.005
409,0.010
410,0.010
411,0.010
412,0.020
413,0.025
414,0.025
415,0.025
416,0.030
417,0.035
418,0.030
419,0.010
420,0.010
421,0.010
422,0.020
423,0.015
424,0.005
425,0.005
426,0.000
427,0.000
428,-0.010
429,0.010
430,0.010
431,0.010
432,0.000
433,0.010
434,0.010
435,0.015
436,0.005
437,0.015
438,0.010
439,0.000
440,-0.005
441,0.000
442,0.010
443,0.020
444,0.010
445,0.005
446,0.000
447,0.005
448,0.010
449,0.010
450,0.005
451,0.000
452,0.000
453,0.000
454,0.000
455,0.000
456,0.000
457,-0.010
458,-0.005
459,-0.005
460,0.005
461,0.015
462,0.015
463,0.010
464,0.000
465,0.000
466,-0.005
467,-0.015
468,-0.020
469,-0.010
470,-0.005
471,-0.010
472,-0.005
473,-0.005
474,0.000
475,-0.005
476,-0.005
477,0.000
478,0.015
479,0.020
480,0.020
481,0.020
482,0.015
483,0.015
484,0.010
485,0.020
486,0.020
487,0.010
488,0.010
489,0.015
490,0.015
491,0.020
492,0.015
493,0.015
494,0.035
495,0.015
496,0.030
497,0.010
498,0.015
499,0.015
500,0.010
501,0.015
502,0.015
503,0.015
504,0.010
505,0.010
506,0.030
507,0.015
508,0.010
509,0.030
510,0.015
511,0.020
512,0.025
513,0.025
514,0.030
515,0.010
516,-0.015
517,0.000
518,0.000
519,-0.005
520,0.015
521,0.025
522,0.050
523,0.050
524,0.055
525,0.055
526,0.010
527,0.045
528,0.025
529,0.025
530,0.030
531,0.010
532,0.010
533,0.030
534,-0.015
535,-0.015
536,-0.015
537,0.010
538,0.025
539,0.020
540,0.020
541,0.040
542,-0.005
543,-0.010
544,0.005
545,0.000
546,-0.005
547,-0.025
548,-0.020
549,0.005
550,-0.015
551,-0.030
552,0.010
553,-0.015
554,0.005
555,0.000
556,0.020
557,0.015
558,0.020
559,0.000
560,0.005
561,0.005
562,0.000
563,-0.010
564,-0.035
565,-0.020
566,-0.005
567,-0.025
568,-0.045
569,-0.005
570,-0.020
571,-0.015
572,0.010
573,0.030
574,0.035
575,0.015
576,0.010
577,0.030
578,-0.005
579,0.035
580,0.035
581,0.020
582,0.020
583,0.020
584,0.015
585,0.015
586,-0.010
587,-0.005
588,0.000
589,0.000
590,0.020
591,0.020
592,0.025
593,0.045
594,0.005
595,0.010
596,0.025
597,0.030
598,0.045
599,0.035
600,0.040
601,0.005
602,-0.005
603,-0.025
604,-0.015
605,-0.015
606,-0.040
607,-0.005
608,-0.005
609,0.005
610,-0.020
611,-0.060
612,-0.095
613,-0.175
614,-0.290
615,-0.380
616,-0.390
617,-0.385
618,-0.380
619,-0.345
620,-0.315
621,-0.285
622,-0.240
623,-0.200
624,-0.190
625,-0.135
626,-0.100
627,-0.025
628,-0.025
629,-0.020
630,-0.070
631,-0.020
632,-0.035
633,-0.040
634,-0.005
635,-0.040
636,-0.015
637,-0.005
638,0.025
639,0.020
640,0.045
641,0.050
642,0.045
643,0.005
644,0.035
645,0.040
646,0.020
647,0.020
648,0.025
649,0.020
650,0.045
651,0.065
652,0.025
653,0.025
654,0.045
655,0.025
656,0.030
657,-0.010
658,0.010
659,0.030
660,0.045
661,0.045
662,0.045
663,0.040
664,0.020
665,0.040
666,0.045
667,0.060
668,0.020
669,0.030
670,0.030
671,0.015
672,0.015
673,0.015
674,0.040
675,0.020
676,0.020
677,0.015
678,0.050
679,0.030
680,0.040
681,0.040
682,0.040
683,0.035
684,0.015
685,0.035
686,0.030
687,0.045
688,0.025
689,0.025
690,0.025
691,0.030
692,0.045
693,0.045
694,0.040
695,0.040
696,0.040
697,0.020
698,0.025
699,0.005
700,0.005
701,0.005
702,0.020
703,-0.005
704,-0.005
705,0.015
706,-0.010
707,0.015
708,0.030
709,0.030
710,0.030
711,-0.005
712,0.000
713,0.015
714,0.000
715,0.015
716,-0.005
717,0.030
718,0.005
719,0.000
720,0.000
721,-0.025
722,-0.005
723,-0.005
724,-0.005
725,-0.025
726,-0.025
727,-0.030
728,-0.035
729,-0.015
730,-0.035
731,-0.015
732,-0.035
733,-0.035
734,-0.010
735,0.005
736,-0.020
737,-0.020
738,-0.020
739,-0.025
740,-0.060
741,-0.020
742,-0.020
743,-0.040
744,0.000
745,0.000
746,0.010
747,0.010
748,0.000
749,-0.015
750,-0.010
751,0.015
752,0.000
753,0.005
754,0.025
755,0.010
756,0.000
757,0.000
758,0.000
759,0.005
760,0.005
761,0.020
762,0.020
763,0.020
764,0.020
765,0.030
766,0.045
767,0.040
768,0.040
769,0.035
770,0.020
771,0.055
772,0.040
773,0.035
774,0.015
775,0.035
776,0.020
777,0.020
778,0.000
779,-0.005
780,0.000
781,0.020
782,0.020
783,0.000
784,0.000
785,0.000
786,-0.005
787,0.015
788,0.030
789,0.015
790,0.015
791,0.035
792,0.035
793,0.035
794,0.015
795,-0.005
796,-0.005
797,0.015
798,0.030
799,-0.005
800,0.015
801,0.010
802,0.010
803,0.010
804,0.010
805,0.000
806,-0.020
807,-0.005
808,0.000
809,0.000
810,0.010
811,0.020
812,0.035
813,0.040
814,0.035
815,0.030
816,0.010
817,0.005
818,-0.010
819,-0.010
820,0.000
821,0.005
822,0.000
823,-0.005
824,-0.010
825,0.010
826,0.015
827,0.020
828,0.020
829,0.020
830,0.020
831,0.030
832,0.030
833,0.030
834,0.020
835,0.015
836,0.005
837,0.005
838,0.005
839,0.005
840,0.000
841,0.000
842,-0.005
843,-0.005
844,-0.010
845,0.005
846,0.005
847,0.010
848,0.010
849,0.025
850,0.030
851,0.040
852,0.040
853,0.035
854,0.020
855,0.010
856,-0.005
857,-0.005
858,-0.010
859,0.000
860,0.000
861,0.000
862,0.010
863,0.015
864,0.020
865,0.030
866,0.035
867,0.030
868,0.025
869,0.020
870,0.010
871,0.015
872,0.010
873,0.015
874,0.005
875,0.005
876,0.000
877,0.005
878,0.015
879,0.020
880,0.020
881,0.020
882,0.020
883,0.020
884,0.020
885,0.015
886,0.010
887,0.000
888,0.010
889,0.015
890,0.020
891,0.020
892,0.015
893,0.015
894,0.010
895,0.010
896,0.015
897,0.015
898,0.040
899,0.035
900,0.015
901,0.035
902,0.015
903,0.010
904,0.010
905,0.015
906,0.015
907,0.030
908,0.015
909,0.035
910,0.015
911,-0.010
912,0.010
913,-0.010
914,-0.005
915,0.030
916,0.030
917,0.015
918,0.000
919,0.025
920,0.025
921,0.030
922,0.050
923,0.065
924,0.060
925,0.060
926,0.055
927,0.035
928,0.045
929,0.030
930,0.010
931,0.015
932,0.015
933,0.010
934,0.005
935,0.025
936,0.025
937,0.050
938,0.050
939,0.030
940,0.050
941,0.045
942,0.025
943,0.045
944,0.050
945,0.005
946,0.000
947,0.000
948,0.020
949,0.035
950,0.010
951,0.005
952,0.000
953,-0.005
954,-0.005
955,0.020
956,0.005
957,0.045
958,0.030
959,0.030
960,0.025
961,0.025
962,0.000
963,0.020
964,0.015
965,0.000
966,0.020
967,0.005
968,0.005
969,0.020
970,0.030
971,0.025
972,0.020
973,-0.005
974,0.015
975,0.015
976,0.035
977,0.000
978,0.005
979,-0.010
980,0.010
981,0.015
982,0.015
983,0.030
984,0.030
985,0.015
986,0.015
987,0.035
988,0.040
989,0.020
990,0.020
991,0.015
992,0.015
993,0.010
994,0.015
995,0.020
996,0.020
997,0.020
998,0.020
999,0.005
1000,0.025
1001,0.025
1002,0.030
1003,0.025
1004,0.050
1005,0.065
1006,0.035
1007,0.020
1008,-0.015
1009,-0.025
1010,-0.045
1011,-0.055
1012,-0.035
1013,-0.040
1014,-0.045
1015,-0.025
1016,0.005
1017,0.020
1018,0.000
1019,-0.055
1020,-0.135
1021,-0.250
1022,-0.340
1023,-0.350
1024,-0.345
1025,-0.260
1026,-0.205
1027,-0.195
1028,-0.165
1029,-0.120
1030,-0.140
1031,-0.090
1032,-0.075
1033,-0.060
1034,-0.025
1035,0.035
1036,0.040
1037,-0.010
1038,-0.020
1039,-0.015
1040,-0.040
1041,-0.025
1042,-0.040
1043,-0.015
1044,-0.025
1045,-0.015
1046,0.000
1047,0.025
1048,0.030
1049,0.025
1050,0.005
1051,0.015
1052,0.040
1053,0.000
1054,0.000
1055,0.005
1056,0.000
1057,-0.015
1058,-0.015
1059,-0.015
1060,0.005
1061,0.005
1062,0.025
1063,0.030
1064,0.050
1065,0.050
1066,0.070
1067,0.065
1068,0.025
1069,0.005
1070,0.020
1071,0.020
1072,0.020
1073,0.005
1074,0.000
1075,0.000
1076,-0.030
1077,0.010
1078,-0.005
1079,-0.005
1080,0.015
1081,0.040
1082,0.020
1083,0.020
1084,0.015
1085,-0.010
1086,-0.010
1087,0.000
1088,0.040
1089,0.020
1090,0.035
1091,0.015
1092,0.015
1093,0.010
1094,-0.015
1095,-0.015
1096,-0.035
1097,-0.015
1098,0.010
1099,-0.015
1100,0.045
1101,-0.020
1102,0.000
1103,-0.020
1104,0.020
1105,-0.015
1106,-0.015
1107,0.025
1108,0.005
1109,-0.020
1110,-0.005
1111,-0.025
1112,-0.025
1113,-0.010
1114,-0.005
1115,-0.030
1116,-0.030
1117,-0.030
1118,-0.025
1119,-0.040
1120,-0.025
1121,-0.040
1122,-0.025
1123,-0.005
1124,-0.050
1125,-0.035
1126,-0.060
1127,-0.060
1128,-0.045
1129,-0.065
1130,-0.065
1131,-0.045
1132,-0.065
1133,-0.045
1134,-0.050
1135,-0.055
1136,-0.075
1137,-0.055
1138,-0.055
1139,-0.035
1140,-0.055
1141,-0.070
1142,-0.055
1143,-0.100
1144,-0.080
1145,-0.080
1146,-0.085
1147,-0.080
1148,-0.080
1149,-0.080
1150,-0.080
1151,-0.060
1152,-0.060
1153,-0.070
1154,-0.070
1155,-0.040
1156,-0.035
1157,-0.030
1158,-0.025
1159,-0.020
1160,-0.015
1161,-0.015
1162,-0.010
1163,-0.020
1164,0.020
1165,0.020
1166,0.025
1167,0.025
1168,0.020
1169,0.000
1170,0.020
1171,0.000
1172,0.010
1173,0.025
1174,0.020
1175,-0.020
1176,-0.025
1177,0.020
1178,0.035
1179,0.020
1180,0.035
1181,0.015
1182,0.015
1183,0.020
1184,0.000
1185,-0.020
1186,-0.025
1187,-0.020
1188,0.000
1189,0.020
1190,0.000
1191,0.020
1192,0.040
1193,0.035
1194,0.015
1195,0.010
1196,0.015
1197,0.015
1198,-0.005
1199,-0.005
1200,0.035
1201,0.015
1202,0.015
1203,0.015
1204,0.015
1205,0.010
1206,0.015
1207,-0.005
1208,0.010
1209,0.010
1210,0.030
1211,-0.010
1212,0.000
1213,0.000
1214,0.000
1215,0.000
1216,0.000
1217,0.000
1218,0.000
1219,0.000
1220,0.000
1221,0.000
1222,0.000
1223,0.000
1224,0.000
1225,0.000
1226,0.010
1227,0.015
1228,0.025
1229,0.035
1230,0.035
1231,0.030
1232,0.020
1233,0.010
1234,0.005
1235,0.005
1236,0.005
1237,0.005
1238,0.000
1239,0.015
1240,0.015
1241,0.000
1242,-0.030
1243,-0.035
1244,-0.020
1245,0.000
1246,0.005
1247,0.005
1248,0.000
1249,0.000
1250,-0.010
1251,-0.015
1252,-0.020
1253,-0.030
1254,-0.035
1255,-0.045
1256,-0.045
1257,-0.040
1258,-0.040
1259,-0.030
1260,-0.010
1261,0.010
1262,0.015
1263,0.015
1264,0.010
1265,0.020
1266,0.020
1267,0.020
1268,0.015
1269,0.010
1270,0.000
1271,0.000
1272,0.000
1273,0.000
1274,-0.015
1275,-0.025
1276,-0.040
1277,-0.035
1278,-0.025
1279,-0.015
1280,-0.010
1281,0.000
1282,0.000
1283,0.000
1284,0.000
1285,-0.005
1286,-0.005
1287,0.000
1288,0.015
1289,0.020
1290,0.010
1291,0.000
1292,-0.010
1293,-0.010
1294,-0.010
1295,-0.010
1296,-0.010
1297,0.015
1298,0.015
1299,0.000
1300,-0.005
1301,-0.005
1302,-0.025
1303,-0.025
1304,-0.030
1305,-0.010
1306,-0.005
1307,0.015
1308,-0.010
1309,-0.005
1310,0.015
1311,-0.005
1312,-0.010
1313,0.010
1314,-0.010
1315,-0.025
1316,-0.010
1317,-0.010
1318,-0.005
1319,0.020
1320,0.005
1321,0.005
1322,0.010
1323,0.010
1324,0.025
1325,0.020
1326,0.000
1327,0.015
1328,0.015
1329,0.005
1330,0.010
1331,0.030
1332,0.015
1333,0.015
1334,0.030
1335,0.005
1336,0.005
1337,0.005
1338,0.010
1339,0.010
1340,0.010
1341,0.010
1342,0.005
1343,0.005
1344,0.025
1345,0.030
1346,0.045
1347,0.020
1348,0.000
1349,0.000
1350,0.015
1351,0.030
1352,0.005
1353,0.020
1354,0.015
1355,-0.005
1356,-0.020
1357,-0.015
1358,0.005
1359,-0.010
1360,-0.030
1361,0.005
1362,-0.015
1363,0.000
1364,0.000
1365,-0.005
1366,-0.020
1367,-0.020
1368,-0.015
1369,0.025
1370,0.020
1371,-0.010
1372,-0.015
1373,-0.020
1374,-0.045
1375,-0.005
1376,0.015
1377,0.015
1378,0.000
1379,0.005
1380,0.030
1381,0.030
1382,0.035
1383,0.035
1384,0.030
1385,0.010
1386,-0.005
1387,-0.005
1388,0.015
1389,0.020
1390,0.040
1391,0.000
1392,0.035
1393,0.015
1394,0.010
1395,0.015
1396,0.060
1397,0.060
1398,0.060
1399,0.040
1400,0.025
1401,0.025
1402,0.005
1403,-0.010
1404,0.025
1405,0.010
1406,0.005
1407,0.015
1408,-0.020
1409,-0.035
1410,-0.065
1411,-0.065
1412,-0.055
1413,-0.055
1414,-0.020
1415,-0.005
1416,0.035
1417,0.085
1418,0.060
1419,0.060
1420,0.065
1421,-0.035
1422,-0.170
1423,-0.280
1424,-0.290
1425,-0.285
1426,-0.220
1427,-0.165
1428,-0.155
1429,-0.125
1430,-0.120
1431,-0.100
1432,-0.070
1433,-0.035
1434,-0.040
1435,-0.005
1436,0.015
1437,0.020
1438,0.010
1439,0.000
1440,0.005
1441,-0.020
1442,-0.025
1443,-0.040
1444,0.005
1445,0.015
1446,0.045
1447,0.040
1448,0.025
1449,0.030
1450,0.045
1451,0.005
1452,0.015
1453,0.000
1454,0.000
1455,0.000
1456,0.005
1457,0.000
1458,0.005
1459,0.025
1460,0.005
1461,0.025
1462,0.025
1463,0.025
1464,0.030
1465,0.030
1466,0.030
1467,0.010
1468,0.025
1469,0.025
1470,0.025
1471,0.020
1472,0.040
1473,0.020
1474,0.045
1475,0.020
1476,0.000
1477,-0.010
1478,-0.010
1479,-0.025
1480,-0.005
1481,-0.005
1482,0.000
1483,-0.020
1484,0.000
1485,-0.005
1486,0.010
1487,0.010
1488,0.000
1489,0.020
1490,0.040
1491,0.035
1492,0.035
1493,0.035
1494,0.010
1495,0.025
1496,0.005
1497,0.005
1498,0.025
1499,0.010
1500,0.005
1501,-0.015
1502,-0.020
1503,0.000
1504,-0.020
1505,-0.020
1506,-0.015
1507,-0.035
1508,-0.015
1509,-0.015
1510,-0.020
1511,-0.005
1512,-0.005
1513,-0.005
1514,-0.010
1515,-0.025
1516,-0.030
1517,-0.030
1518,-0.010
1519,0.015
1520,0.040
1521,0.035
1522,0.000
1523,-0.005
1524,-0.005
1525,-0.030
1526,-0.035
1527,-0.040
1528,-0.040
1529,-0.025
1530,-0.025
1531,-0.025
1532,-0.025
1533,-0.045
1534,-0.025
1535,-0.030
1536,-0.055
1537,-0.055
1538,-0.055
1539,-0.075
1540,-0.075
1541,-0.055
1542,-0.050
1543,-0.055
1544,-0.060
1545,-0.080
1546,-0.060
1547,-0.065
1548,-0.080
1549,-0.040
1550,-0.060
1551,-0.060
1552,-0.060
1553,-0.040
1554,-0.050
1555,-0.050
1556,-0.040
1557,-0.015
1558,-0.030
1559,-0.025
1560,-0.040
1561,-0.015
1562,0.005
1563,-0.010
1564,0.000
1565,0.020
1566,0.020
1567,0.025
1568,0.045
1569,0.020
1570,0.020
1571,0.020
1572,0.020
1573,0.030
1574,0.045
1575,0.020
1576,0.000
1577,0.015
1578,0.020
1579,-0.005
1580,0.000
1581,0.015
1582,0.015
1583,0.015
1584,0.040
1585,0.020
1586,0.020
1587,0.015
1588,0.040
1589,0.040
1590,0.020
1591,0.020
1592,0.020
1593,0.000
1594,-0.005
1595,-0.005
1596,0.030
1597,0.015
1598,-0.005
1599,-0.005
1600,0.015
1601,0.015
1602,0.015
1603,0.035
1604,0.015
1605,0.015
1606,0.010
1607,-0.025
1608,-0.005
1609,-0.030
1610,-0.030
1611,-0.010
1612,0.010
1613,0.020
1614,0.040
1615,0.030
1616,0.020
1617,0.020
1618,0.010
1619,0.005
1620,0.005
1621,0.005
1622,0.005
1623,0.000
1624,0.000
1625,0.000
1626,0.000
1627,0.010
1628,0.015
1629,0.030
1630,0.035
1631,0.030
1632,0.015
1633,0.000
1634,0.000
1635,0.005
1636,0.015
1637,0.015
1638,0.015
1639,0.020
1640,0.030
1641,0.040
1642,0.035
1643,0.030
1644,0.030
1645,0.035
1646,0.045
1647,0.030
1648,0.020
1649,0.010
1650,0.020
1651,0.015
1652,0.005
1653,0.005
1654,0.005
1655,0.010
1656,0.010
1657,0.020
1658,0.010
1659,0.005
1660,0.000
1661,0.005
1662,0.010
1663,0.010
1664,0.005
1665,0.005
1666,0.010
1667,0.030
1668,0.035
1669,0.035
1670,0.025
1671,0.020
1672,0.015
1673,0.020
1674,0.020
1675,0.020
1676,0.010
1677,0.015
1678,0.010
1679,0.010
1680,0.010
1681,0.015
1682,0.020
1683,0.020
1684,0.020
1685,0.020
1686,0.010
1687,0.005
1688,0.000
1689,0.000
1690,0.000
1691,0.010
1692,0.015
1693,0.015
1694,0.010
1695,0.005
1696,0.010
1697,0.020
1698,0.020
1699,0.030
1700,0.035
1701,0.050
1702,-0.005
1703,0.035
1704,0.020
1705,0.035
1706,0.035
1707,0.035
1708,0.035
1709,0.030
1710,0.010
1711,-0.005
1712,0.015
1713,0.030
1714,0.035
1715,0.015
1716,-0.005
1717,0.010
1718,0.010
1719,-0.010
1720,-0.005
1721,0.030
1722,0.030
1723,0.015
1724,0.040
1725,0.025
1726,0.025
1727,0.030
1728,0.050
1729,0.045
1730,0.040
1731,0.020
1732,0.015
1733,0.015
1734,0.045
1735,0.050
1736,0.050
1737,0.035
1738,0.055
1739,0.030
1740,0.025
1741,0.045
1742,0.045
1743,0.050
1744,0.050
1745,0.030
1746,0.030
1747,0.005
1748,0.025
1749,0.045
1750,0.010
1751,0.045
1752,0.020
1753,0.020
1754,0.000
1755,0.035
1756,0.030
1757,0.005
1758,0.000
1759,-0.025
1760,-0.005
1761,0.000
1762,-0.015
1763,-0.015
1764,0.010
1765,0.010
1766,-0.015
1767,-0.015
1768,0.000
1769,0.000
1770,-0.005
1771,0.020
1772,0.020
1773,0.005
1774,0.005
1775,0.020
1776,0.010
1777,0.025
1778,0.020
1779,0.015
1780,-0.005
1781,-0.005
1782,-0.025
1783,0.000
1784,0.025
1785,0.010
1786,0.030
1787,0.015
1788,-0.005
1789,0.010
1790,0.030
1791,0.035
1792,0.015
1793,0.015
1794,0.020
1795,0.020
1796,0.000
1797,0.035
1798,0.015
1799,0.030
1800,0.035
1801,0.040
1802,0.000
1803,0.020
1804,0.040
1805,0.025
1806,0.045
1807,0.045
1808,0.030
1809,0.025
1810,0.010
1811,0.005
1812,0.035
1813,0.000
1814,0.005
1815,-0.025
1816,-0.045
1817,-0.035
1818,-0.035
1819,0.000
1820,0.035
1821,0.035
1822,0.025
1823,0.060
1824,0.020
1825,-0.015
1826,-0.095
1827,-0.250
1828,-0.340
1829,-0.350
1830,-0.365
1831,-0.360
1832,-0.325
1833,-0.295
1834,-0.245
1835,-0.220
1836,-0.180
1837,-0.130
1838,-0.095
1839,-0.060
1840,-0.025
1841,0.015
1842,0.020
1843,-0.030
1844,0.000
1845,0.005
1846,0.000
1847,-0.005
1848,0.000
1849,0.005
1850,0.015
1851,0.045
1852,0.040
1853,0.045
1854,0.050
1855,0.065
1856,0.045
1857,0.015
1858,0.040
1859,0.040
1860,0.020
1861,0.025
1862,0.040
1863,0.065
1864,0.065
1865,0.045
1866,0.025
1867,0.025
1868,0.025
1869,0.050
1870,0.050
1871,0.010
1872,0.030
1873,0.025
1874,0.025
1875,0.025
1876,0.060
1877,0.040
1878,0.020
1879,0.045
1880,0.060
1881,0.040
1882,0.030
1883,0.050
1884,0.035
1885,0.015
1886,0.035
1887,0.040
1888,0.060
1889,0.020
1890,0.015
1891,0.010
1892,0.010
1893,0.040
1894,0.060
1895,0.020
1896,0.015
1897,0.015
1898,0.015
1899,0.030
1900,0.025
1901,0.025
1902,0.005
1903,-0.015
1904,-0.010
1905,0.005
1906,0.025
1907,0.020
1908,0.020
1909,0.000
1910,0.020
1911,0.025
1912,0.045
1913,0.025
1914,0.005
1915,-0.020
1916,-0.005
1917,-0.005
1918,-0.005
1919,-0.010
1920,-0.005
1921,-0.010
1922,0.010
1923,0.010
1924,0.035
1925,0.020
1926,0.015
1927,0.020
1928,0.015
1929,0.015
1930,-0.010
1931,-0.015
1932,-0.020
1933,-0.020
1934,-0.005
1935,0.015
1936,-0.005
1937,-0.025
1938,-0.025
1939,0.035
1940,0.010
1941,0.005
1942,0.005
1943,0.005
1944,0.005
1945,0.005
1946,0.005
1947,-0.010
1948,-0.035
1949,-0.020
1950,-0.040
1951,-0.040
1952,-0.025
1953,0.020
1954,0.020
1955,0.020
1956,0.000
1957,-0.020
1958,0.000
1959,-0.010
1960,-0.010
1961,0.000
1962,0.025
1963,-0.010
1964,-0.005
1965,0.000
1966,0.025
1967,0.025
1968,0.010
1969,0.040
1970,0.040
1971,0.020
1972,0.045
1973,0.065
1974,0.040
1975,0.020
1976,0.040
1977,0.040
1978,0.050
1979,0.025
1980,0.020
1981,0.020
1982,0.035
1983,-0.020
1984,0.035
1985,0.020
1986,0.035
1987,0.035
1988,0.035
1989,0.020
1990,0.000
1991,0.040
1992,0.035
1993,0.040
1994,0.040
1995,0.040
1996,0.040
1997,0.020
1998,0.040
1999,-0.005
2000,-0.005
2001,0.010
2002,0.015
2003,-0.005
2004,0.015
2005,-0.005
2006,-0.005
2007,0.015
2008,0.035
2009,0.055
2010,0.035
2011,0.030
2012,0.035
2013,-0.005
2014,0.010
2015,0.010
2016,0.010
2017,-0.010
2018,0.020
2019,0.000
2020,0.010
2021,0.015
2022,0.010
2023,0.020
2024,0.015
2025,0.010
2026,-0.005
2027,-0.010
2028,-0.010
2029,-0.005
2030,0.000
2031,0.010
2032,0.010
2033,0.010
2034,0.000
2035,0.000
2036,0.000
2037,0.000
2038,0.010
2039,0.010
2040,0.015
2041,0.015
2042,0.020
2043,0.015
2044,0.015
2045,0.015
2046,0.015
2047,0.010
2048,0.010
2049,0.015
2050,0.015
2051,0.010
2052,0.010
2053,0.015
2054,0.010
2055,0.000
2056,-0.005
2057,-0.020
2058,-0.015
2059,-0.005
2060,0.005
2061,0.005
2062,0.020
2063,0.035
2064,0.035
2065,0.020
2066,0.010
2067,0.010
2068,0.015
2069,0.005
2070,0.000
2071,0.000
2072,0.000
2073,-0.010
2074,-0.015
2075,-0.010
2076,-0.005
2077,0.010
2078,0.020
2079,0.025
2080,0.025
2081,0.010
2082,0.015
2083,0.005
2084,0.005
2085,0.000
2086,0.000
2087,0.000
2088,0.000
2089,-0.005
2090,-0.005
2091,-0.005
2092,0.000
2093,0.010
2094,0.010
2095,0.010
2096,0.000
2097,0.000
2098,-0.010
2099,-0.010
2100,-0.010
2101,0.000
2102,0.000
2103,0.005
2104,0.005
2105,0.010
2106,0.000
2107,0.000
2108,0.010
2109,0.010
2110,0.005
2111,0.010
2112,0.015
2113,0.015
2114,0.000
2115,0.015
2116,-0.005
2117,-0.005
2118,0.015
2119,0.010
2120,0.030
2121,0.035
2122,0.035
2123,0.030
2124,-0.005
2125,-0.025
2126,-0.025
2127,-0.010
2128,0.030
2129,0.030
2130,0.015
2131,0.030
2132,0.010
2133,0.015
2134,0.020
2135,0.025
2136,0.005
2137,0.010
2138,0.010
2139,0.045
2140,0.020
2141,0.040
2142,0.035
2143,0.035
2144,0.045
2145,0.030
2146,0.050
2147,0.035
2148,0.015
2149,0.030
2150,0.025
2151,0.025
2152,0.025
2153,0.030
2154,0.030
2155,0.030
2156,0.010
2157,0.025
2158,0.025
2159,0.045
2160,0.030
2161,0.025
2162,0.020
2163,0.020
2164,0.020
2165,-0.005
2166,-0.010
2167,-0.015
2168,-0.020
2169,-0.025
2170,-0.045
2171,-0.040
2172,-0.055
2173,-0.015
2174,-0.010
2175,-0.010
2176,-0.035
2177,-0.015
2178,0.000
2179,-0.040
2180,-0.025
2181,0.000
2182,-0.020
2183,-0.015
2184,-0.015
2185,0.020
2186,0.010
2187,0.005
2188,0.020
2189,0.035
2190,0.015
2191,-0.005
2192,0.015
2193,0.000
2194,-0.015
2195,-0.010
2196,-0.010
2197,-0.005
2198,-0.005
2199,-0.010
2200,-0.010
2201,-0.005
2202,0.015
2203,-0.005
2204,0.000
2205,0.000
2206,0.020
2207,-0.005
2208,-0.025
2209,0.010
2210,0.035
2211,0.020
2212,0.020
2213,-0.020
2214,0.000
2215,0.005
2216,0.025
2217,0.045
2218,0.030
2219,0.025
2220,0.030
2221,0.045
2222,0.015
2223,0.000
2224,-0.035
2225,-0.045
2226,-0.005
2227,-0.015
2228,-0.015
2229,-0.040
2230,-0.045
2231,-0.025
2232,-0.015
2233,-0.020
2234,-0.020
2235,-0.055
2236,-0.155
2237,-0.270
2238,-0.400
2239,-0.450
2240,-0.425
2241,-0.440
2242,-0.405
2243,-0.375
2244,-0.325
2245,-0.300
2246,-0.280
2247,-0.230
2248,-0.195
2249,-0.120
2250,-0.065
2251,-0.045
2252,-0.060
2253,-0.070
2254,-0.060
2255,-0.055
2256,-0.060
2257,-0.045
2258,-0.040
2259,-0.055
2260,-0.005
2261,-0.015
2262,0.000
2263,0.025
2264,0.030
2265,0.065
2266,0.045
2267,0.015
2268,0.000
2269,0.020
2270,0.020
2271,0.005
2272,0.000
2273,0.005
2274,0.025
2275,0.025
2276,0.005
2277,0.045
2278,0.025
2279,0.030
2280,0.030
2281,0.030
2282,0.030
2283,0.005
2284,0.025
2285,-0.015
2286,0.020
2287,0.000
2288,0.020
2289,0.025
2290,0.020
2291,0.020
2292,0.030
2293,0.010
2294,0.015
2295,0.015
2296,0.035
2297,0.020
2298,0.020
2299,0.040
2300,0.035
2301,0.030
2302,0.010
2303,0.020
2304,0.020
2305,0.040
2306,0.015
2307,0.015
2308,-0.005
2309,0.010
2310,0.005
2311,0.005
2312,0.025
2313,0.025
2314,0.030
2315,0.005
2316,0.025
2317,0.000
2318,0.000
2319,0.000
2320,0.000
2321,-0.015
2322,0.005
2323,0.005
2324,0.005
2325,0.000
2326,0.015
2327,0.015
2328,-0.005
2329,0.010
2330,-0.005
2331,-0.010
2332,-0.010
2333,-0.010
2334,-0.025
2335,0.000
2336,-0.005
2337,0.000
2338,0.015
2339,-0.005
2340,0.010
2341,0.005
2342,-0.020
2343,0.000
2344,-0.005
2345,-0.005
2346,-0.005
2347,-0.005
2348,-0.005
2349,-0.005
2350,-0.010
2351,-0.035
2352,-0.055
2353,-0.075
2354,-0.055
2355,-0.055
2356,-0.055
2357,-0.030
2358,-0.035
2359,-0.040
2360,-0.060
2361,-0.040
2362,-0.025
2363,-0.020
2364,-0.020
2365,-0.020
2366,-0.040
2367,-0.040
2368,-0.020
2369,-0.030
2370,-0.050
2371,-0.040
2372,-0.035
2373,-0.030
2374,-0.005
2375,0.000
2376,-0.035
2377,-0.015
2378,0.010
2379,0.020
2380,0.020
2381,0.020
2382,0.005
2383,0.025
2384,0.020
2385,0.020
2386,0.020
2387,0.020
2388,0.030
2389,0.065
2390,0.060
2391,0.040
2392,0.035
2393,0.020
2394,-0.005
2395,0.000
2396,0.015
2397,0.035
2398,0.015
2399,0.000
2400,0.040
2401,0.040
2402,0.035
2403,0.020
2404,0.040
2405,0.040
2406,0.040
2407,0.040
2408,0.020
2409,-0.005
2410,0.015
2411,-0.010
2412,0.015
2413,0.015
2414,0.035
2415,0.015
2416,0.015
2417,0.015
2418,0.015
2419,0.015
2420,0.015
2421,0.030
2422,0.015
2423,0.035
2424,0.030
2425,0.030
2426,0.010
2427,-0.010
2428,0.020
2429,0.020
2430,0.030
2431,0.030
2432,0.020
2433,0.020
2434,0.020
2435,0.020
2436,0.020
2437,0.020
2438,0.015
2439,0.000
2440,-0.015
2441,-0.020
2442,-0.005
2443,0.000
2444,0.015
2445,0.015
2446,0.020
2447,0.025
2448,0.035
2449,0.035
2450,0.030
2451,0.025
2452,0.025
2453,0.020
2454,0.020
2455,0.020
2456,0.020
2457,0.020
2458,0.020
2459,0.010
2460,0.010
2461,0.010
2462,0.015
2463,0.015
2464,0.010
2465,0.020
2466,0.020
2467,0.020
2468,0.015
2469,0.010
2470,0.005
2471,0.010
2472,0.020
2473,0.015
2474,0.010
2475,0.000
2476,0.000
2477,0.000
2478,0.015
2479,0.015
2480,0.015
2481,0.000
2482,0.010
2483,0.010
2484,0.010
2485,0.000
2486,-0.010
2487,-0.005
2488,-0.005
2489,-0.005
2490,-0.010
2491,0.000
2492,0.015
2493,0.020
2494,0.020
2495,0.020
2496,0.010
2497,0.015
2498,0.020
2499,0.020
2500,0.015
2501,0.010
2502,0.020
2503,0.025
2504,0.020
2505,0.005
2506,0.010
2507,0.020
2508,0.025
2509,0.020
2510,0.015
2511,0.020
2512,0.025
2513,0.030
2514,0.035
2515,0.015
2516,0.000
2517,0.035
2518,0.035
2519,0.015
2520,0.015
2521,-0.010
2522,0.010
2523,0.015
2524,0.015
2525,0.010
2526,0.015
2527,0.015
2528,0.015
2529,0.030
2530,0.030
2531,0.050
2532,0.015
2533,0.030
2534,0.010
2535,-0.005
2536,0.000
2537,0.045
2538,0.045
2539,0.050
2540,0.030
2541,0.025
2542,0.020
2543,0.040
2544,0.035
2545,0.035
2546,0.045
2547,0.050
2548,0.030
2549,0.035
2550,0.035
2551,0.030
2552,0.045
2553,0.045
2554,0.045
2555,0.030
2556,0.050
2557,0.050
2558,0.050
2559,0.045
2560,0.025
2561,0.045
2562,0.010
2563,0.025
2564,0.020
2565,0.000
2566,0.020
2567,0.015
2568,0.010
2569,0.005
2570,0.020
2571,0.015
2572,-0.005
2573,0.000
2574,0.025
2575,0.025
2576,0.030
2577,0.050
2578,0.025
2579,-0.015
2580,0.000
2581,0.000
2582,-0.005
2583,0.000
2584,0.020
2585,0.025
2586,0.005
2587,0.000
2588,-0.010
2589,0.005
2590,0.000
2591,-0.025
2592,-0.005
2593,0.015
2594,0.015
2595,0.000
2596,0.025
2597,0.010
2598,0.010
2599,0.035
2600,0.015
2601,0.030
2602,0.030
2603,-0.005
2604,0.035
2605,0.055
2606,0.040
2607,0.020
2608,0.020
2609,0.035
2610,0.015
2611,0.030
2612,0.035
2613,0.020
2614,0.000
2615,0.000
2616,0.020
2617,0.045
2618,0.045
2619,0.025
2620,0.010
2621,0.005
2622,0.030
2623,0.025
2624,0.015
2625,0.000
2626,-0.035
2627,-0.045
2628,-0.065
2629,-0.075
2630,-0.075
2631,-0.060
2632,-0.025
2633,0.035
2634,0.025
2635,0.020
2636,0.040
2637,-0.015
2638,-0.115
2639,-0.230
2640,-0.300
2641,-0.310
2642,-0.265
2643,-0.220
2644,-0.165
2645,-0.135
2646,-0.125
2647,-0.120
2648,-0.140
2649,-0.090
2650,-0.075
2651,-0.040
2652,0.015
2653,0.035
2654,0.020
2655,0.010
2656,0.020
2657,-0.015
2658,-0.020
2659,-0.005
2660,-0.020
2661,-0.015
2662,0.035
2663,0.025
2664,0.000
2665,0.005
2666,0.030
2667,0.005
2668,0.005
2669,-0.005
2670,0.020
2671,0.040
2672,0.060
2673,0.065
2674,0.040
2675,0.045
2676,0.045
2677,0.025
2678,0.025
2679,0.045
2680,0.045
2681,0.050
2682,0.050
2683,0.070
2684,0.050
2685,0.045
2686,0.025
2687,0.025
2688,0.000
2689,0.000
2690,0.020
2691,0.045
2692,0.020
2693,0.020
2694,0.010
2695,-0.010
2696,0.015
2697,0.015
2698,-0.005
2699,0.020
2700,0.000
2701,0.000
2702,-0.025
2703,-0.010
2704,-0.010
2705,0.020
2706,0.020
2707,0.020
2708,0.015
2709,0.035
2710,0.055
2711,0.030
2712,-0.015
2713,0.005
2714,-0.015
2715,0.025
2716,0.010
2717,0.005
2718,0.005
2719,0.000
2720,0.000
2721,0.000
2722,-0.040
2723,0.005
2724,0.005
2725,0.005
2726,0.005
2727,0.000
2728,-0.005
2729,-0.005
2730,-0.025
2731,-0.010
2732,-0.025
2733,-0.030
2734,-0.030
2735,-0.010
2736,-0.025
2737,0.000
2738,-0.025
2739,-0.020
2740,-0.025
2741,-0.025
2742,-0.010
2743,-0.035
2744,-0.020
2745,-0.040
2746,-0.025
2747,-0.025
2748,-0.045
2749,-0.025
2750,-0.025
2751,-0.025
2752,-0.030
2753,-0.035
2754,-0.035
2755,-0.035
2756,-0.055
2757,-0.035
2758,-0.035
2759,-0.050
2760,-0.055
2761,-0.040
2762,-0.060
2763,-0.060
2764,-0.045
2765,-0.040
2766,-0.040
2767,-0.040
2768,-0.060
2769,-0.060
2770,-0.080
2771,-0.070
2772,-0.050
2773,-0.040
2774,-0.035
2775,-0.010
2776,-0.005
2777,0.020
2778,0.005
2779,0.005
2780,-0.010
2781,0.020
2782,0.020
2783,0.000
2784,0.005
2785,-0.015
2786,0.000
2787,0.000
2788,-0.020
2789,0.020
2790,0.070
2791,0.065
2792,0.060
2793,0.060
2794,0.035
2795,0.060
2796,0.055
2797,0.060
2798,0.035
2799,0.055
2800,0.055
2801,0.040
2802,0.020
2803,0.020
2804,0.015
2805,0.040
2806,0.060
2807,0.040
2808,0.020
2809,0.000
2810,0.000
2811,0.015
2812,0.015
2813,0.010
2814,-0.005
2815,0.015
2816,0.015
2817,0.035
2818,0.015
2819,0.015
2820,0.015
2821,0.015
2822,0.015
2823,0.010
2824,0.015
2825,0.035
2826,0.010
2827,0.030
2828,0.030
2829,0.050
2830,0.020
2831,0.020
2832,0.020
2833,0.025
2834,0.025
2835,0.030
2836,0.020
2837,0.020
2838,0.025
2839,0.030
2840,0.035
2841,0.030
2842,0.020
2843,0.030
2844,0.030
2845,0.020
2846,0.005
2847,0.000
2848,0.015
2849,0.025
2850,0.035
2851,0.035
2852,0.030
2853,0.030
2854,0.020
2855,0.005
2856,0.000
2857,-0.010
2858,0.000
2859,0.000
2860,0.000
2861,0.000
2862,0.015
2863,0.020
2864,0.025
2865,0.025
2866,0.030
2867,0.030
2868,0.020
2869,0.020
2870,0.020
2871,0.025
2872,0.025
2873,0.035
2874,0.035
2875,0.030
2876,0.030
2877,0.015
2878,0.000
2879,-0.010
2880,-0.005
2881,0.015
2882,0.025
2883,0.035
2884,0.020
2885,0.015
2886,0.015
2887,0.020
2888,0.020
2889,0.020
2890,0.020
2891,0.020
2892,0.020
2893,0.010
2894,0.005
2895,0.005
2896,0.005
2897,0.010
2898,0.005
2899,0.020
2900,0.025
2901,0.035
2902,0.030
2903,0.030
2904,0.030
2905,0.030
2906,0.020
2907,0.025
2908,0.025
2909,0.020
2910,0.010
2911,0.000
2912,0.010
2913,0.015
2914,0.035
2915,0.020
2916,0.035
2917,0.035
2918,0.015
2919,0.035
2920,0.030
2921,0.050
2922,0.055
2923,0.055
2924,0.050
2925,0.015
2926,0.035
2927,0.035
2928,0.030
2929,0.030
2930,0.030
2931,0.055
2932,0.050
2933,0.050
2934,0.035
2935,0.060
2936,0.045
2937,0.065
2938,0.070
2939,0.070
2940,0.025
2941,0.040
2942,0.060
2943,0.035
2944,0.015
2945,0.045
2946,0.070
2947,0.070
2948,0.055
2949,0.075
2950,0.070
2951,0.025
2952,0.025
2953,0.045
2954,0.050
2955,0.070
2956,0.050
2957,0.030
2958,0.025
2959,0.025
2960,0.045
2961,0.030
2962,0.065
2963,0.040
2964,0.020
2965,0.040
2966,0.055
2967,0.050
2968,0.025
2969,0.000
2970,0.035
2971,0.015
2972,0.020
2973,0.025
2974,0.045
2975,0.030
2976,0.050
2977,0.045
2978,0.005
2979,0.020
2980,0.020
2981,0.015
2982,0.020
2983,0.000
2984,-0.015
2985,0.005
2986,0.020
2987,0.030
2988,0.025
2989,0.020
2990,-0.005
2991,-0.005
2992,-0.005
2993,-0.005
2994,0.020
2995,0.005
2996,-0.010
2997,0.010
2998,-0.005
2999,-0.005
3000,0.010
3001,0.010
3002,-0.025
3003,-0.005
3004,-0.005
3005,0.020
3006,0.020
3007,0.020
3008,0.015
3009,-0.005
3010,-0.010
3011,0.015
3012,0.040
3013,0.040
3014,0.020
3015,0.040
3016,0.025
3017,0.025
3018,0.005
3019,0.050
3020,0.045
3021,0.050
3022,0.045
3023,0.015
3024,0.000
3025,-0.015
3026,-0.025
3027,-0.025
3028,-0.035
3029,-0.035
3030,0.000
3031,0.055
3032,0.075
3033,0.065
3034,0.060
3035,0.040
3036,-0.055
3037,-0.195
3038,-0.270
3039,-0.280
3040,-0.270
3041,-0.245
3042,-0.220
3043,-0.205
3044,-0.155
3045,-0.125
3046,-0.120
3047,-0.120
3048,-0.090
3049,-0.075
3050,-0.040
3051,-0.005
3052,0.035
3053,0.000
3054,0.010
3055,-0.020
3056,0.005
3057,-0.020
3058,-0.005
3059,-0.020
3060,-0.015
3061,-0.005
3062,0.005
3063,0.040
3064,0.005
3065,0.010
3066,0.025
3067,0.005
3068,0.015
3069,0.020
3070,0.040
3071,0.040
3072,0.045
3073,0.040
3074,0.005
3075,0.005
3076,0.005
3077,0.025
3078,0.005
3079,0.005
3080,0.010
3081,0.030
3082,0.010
3083,0.030
3084,0.025
3085,0.025
3086,0.025
3087,0.020
3088,0.020
3089,0.020
3090,0.005
3091,0.040
3092,0.020
3093,0.030
3094,0.030
3095,0.015
3096,0.015
3097,0.015
3098,0.020
3099,0.020
3100,0.020
3101,0.015
3102,0.010
3103,0.010
3104,0.020
3105,0.020
3106,0.020
3107,0.015
3108,-0.005
3109,-0.005
3110,-0.010
3111,-0.015
3112,-0.035
3113,0.005
3114,0.005
3115,0.010
3116,0.045
3117,0.025
3118,0.020
3119,0.020
3120,0.020
3121,0.020
3122,0.045
3123,0.025
3124,0.025
3125,0.005
3126,0.020
3127,-0.025
3128,-0.025
3129,-0.005
3130,-0.010
3131,-0.025
3132,-0.030
3133,-0.030
3134,-0.010
3135,0.015
3136,-0.020
3137,-0.025
3138,-0.020
3139,0.015
3140,-0.025
3141,0.010
3142,-0.015
3143,-0.020
3144,-0.020
3145,-0.025
3146,-0.005
3147,-0.025
3148,-0.025
3149,-0.025
3150,-0.065
3151,-0.030
3152,-0.035
3153,-0.035
3154,-0.015
3155,-0.015
3156,-0.015
3157,-0.015
3158,-0.030
3159,-0.035
3160,-0.040
3161,-0.040
3162,0.000
3163,-0.025
3164,-0.020
3165,-0.020
3166,-0.040
3167,-0.080
3168,-0.040
3169,-0.040
3170,-0.050
3171,-0.010
3172,0.000
3173,-0.015
3174,-0.010
3175,0.015
3176,0.020
3177,0.025
3178,0.005
3179,0.010
3180,0.020
3181,0.040
3182,0.040
3183,0.005
3184,0.045
3185,0.020
3186,0.020
3187,0.020
3188,0.020
3189,0.010
3190,0.005
3191,0.000
3192,0.020
3193,-0.005
3194,0.000
3195,0.015
3196,0.000
3197,0.015
3198,0.015
3199,0.015
3200,0.020
3201,0.000
3202,-0.020
3203,-0.025
3204,-0.020
3205,0.000
3206,0.020
3207,0.000
3208,0.020
3209,0.020
3210,0.015
3211,0.015
3212,0.030
3213,0.015
3214,0.015
3215,0.015
3216,0.015
3217,0.015
3218,0.015
3219,0.015
3220,0.035
3221,0.015
3222,-0.010
3223,-0.005
3224,-0.005
3225,0.010
3226,0.010
3227,0.030
3228,0.050
3229,0.040
3230,0.040
3231,0.030
3232,0.015
3233,0.020
3234,0.025
3235,0.030
3236,0.020
3237,0.010
3238,0.010
3239,0.030
3240,0.030
3241,0.035
3242,0.025
3243,0.030
3244,0.020
3245,0.015
3246,0.005
3247,0.010
3248,0.005
3249,0.010
3250,0.010
3251,0.015
3252,0.015
3253,0.020
3254,0.035
3255,0.030
3256,0.025
3257,0.015
3258,0.015
3259,0.015
3260,0.020
3261,0.020
3262,0.015
3263,0.015
3264,0.015
3265,0.005
3266,-0.010
3267,-0.015
3268,-0.005
3269,0.000
3270,0.000
3271,0.005
3272,0.020
3273,0.030
3274,0.040
3275,0.030
3276,0.030
3277,0.020
3278,0.020
3279,0.020
3280,0.020
3281,0.020
3282,0.015
3283,0.000
3284,-0.005
3285,-0.005
3286,0.005
3287,0.015
3288,0.020
3289,0.015
3290,0.005
3291,0.005
3292,0.005
3293,0.005
3294,0.000
3295,0.000
3296,0.000
3297,0.000
3298,0.000
3299,0.010
3300,0.015
3301,0.020
3302,0.020
3303,0.020
3304,0.020
3305,0.020
3306,0.020
3307,0.015
3308,0.015
3309,0.010
3310,0.010
3311,0.020
3312,0.020
3313,0.025
3314,0.020
3315,0.010
3316,0.015
3317,0.005
3318,0.010
3319,-0.005
3320,-0.005
3321,0.020
3322,0.015
3323,0.035
3324,0.015
3325,0.015
3326,0.010
3327,0.010
3328,0.035
3329,0.015
3330,0.010
3331,-0.005
3332,0.015
3333,0.015
3334,0.010
3335,0.010
3336,-0.010
3337,-0.005
3338,-0.010
3339,-0.010
3340,-0.005
3341,0.000
3342,0.025
3343,0.025
3344,0.050
3345,0.030
3346,0.025
3347,0.020
3348,0.020
3349,0.015
3350,0.015
3351,0.025
3352,0.030
3353,0.050
3354,0.055
3355,0.035
3356,0.050
3357,0.025
3358,0.045
3359,0.025
3360,0.050
3361,0.010
3362,0.030
3363,0.030
3364,0.025
3365,0.025
3366,0.025
3367,0.010
3368,0.005
3369,0.000
3370,0.020
3371,0.020
3372,0.035
3373,-0.010
3374,0.005
3375,0.000
3376,-0.005
3377,-0.005
3378,-0.020
3379,0.005
3380,0.005
3381,0.010
3382,0.010
3383,0.025
3384,-0.015
3385,-0.020
3386,-0.040
3387,-0.045
3388,-0.020
3389,0.020
3390,0.025
3391,0.005
3392,0.040
3393,0.030
3394,-0.015
3395,0.000
3396,-0.005
3397,-0.025
3398,-0.065
3399,-0.025
3400,-0.020
3401,-0.015
3402,-0.010
3403,-0.010
3404,-0.025
3405,-0.025
3406,0.010
3407,0.010
3408,0.015
3409,0.035
3410,-0.005
3411,0.000
3412,0.040
3413,0.020
3414,0.015
3415,0.015
3416,0.030
3417,0.035
3418,0.020
3419,0.020
3420,0.060
3421,0.020
3422,-0.015
3423,0.005
3424,0.025
3425,0.010
3426,0.025
3427,0.050
3428,0.065
3429,0.055
3430,0.020
3431,-0.015
3432,-0.005
3433,0.015
3434,-0.015
3435,-0.035
3436,-0.020
3437,0.015
3438,0.035
3439,0.065
3440,0.020
3441,0.020
3442,0.005
3443,-0.075
3444,-0.230
3445,-0.320
3446,-0.350
3447,-0.365
3448,-0.360
3449,-0.365
3450,-0.355
3451,-0.285
3452,-0.280
3453,-0.220
3454,-0.190
3455,-0.135
3456,-0.120
3457,-0.065
3458,-0.005
3459,-0.020
3460,-0.030
3461,-0.040
3462,0.005
3463,0.000
3464,-0.005
3465,0.000
3466,0.005
3467,-0.005
3468,0.025
3469,0.020
3470,0.025
3471,0.030
3472,0.025
3473,0.005
3474,0.015
3475,0.020
3476,0.000
3477,0.020
3478,0.025
3479,0.020
3480,0.045
3481,0.025
3482,0.025
3483,0.005
3484,0.025
3485,0.005
3486,0.010
3487,0.030
3488,0.010
3489,0.030
3490,0.025
3491,0.025
3492,0.025
3493,0.020
3494,0.020
3495,0.020
3496,0.005
3497,0.040
3498,0.020
3499,0.010
3500,0.030
3501,0.035
3502,0.015
3503,0.035
3504,0.040
3505,0.060
3506,0.040
3507,0.015
3508,0.030
3509,0.010
3510,0.040
3511,0.020
3512,0.020
3513,0.035
3514,0.035
3515,0.015
3516,0.010
3517,0.025
3518,0.005
3519,0.025
3520,0.025
3521,0.010
3522,0.005
3523,0.025
3524,0.040
3525,0.060
3526,0.040
3527,0.000
3528,0.025
3529,0.005
3530,0.005
3531,0.005
3532,0.020
3533,0.015
3534,0.015
3535,0.035
3536,-0.010
3537,0.035
3538,0.030
3539,0.030
3540,-0.010
3541,-0.005
3542,0.020
3543,0.015
3544,0.000
3545,0.015
3546,-0.005
3547,0.010
3548,-0.015
3549,-0.020
3550,0.020
3551,0.015
3552,-0.005
3553,-0.005
3554,0.015
3555,0.015
3556,0.015
3557,0.010
3558,-0.015
3559,-0.035
3560,-0.015
3561,-0.015
3562,0.005
3563,0.005
3564,0.010
3565,0.025
3566,0.020
3567,0.000
3568,0.020
3569,-0.005
3570,-0.020
3571,-0.040
3572,-0.020
3573,-0.020
3574,-0.020
3575,-0.020
3576,-0.030
3577,-0.030
3578,-0.020
3579,0.005
3580,0.010
3581,0.035
3582,0.020
3583,0.005
3584,0.005
3585,-0.010
3586,0.000
3587,0.020
3588,0.020
3589,0.045
3590,0.045
3591,0.020
3592,0.040
3593,0.040
3594,0.020
3595,0.030
3596,0.045
3597,0.040
3598,0.040
3599,0.055
3600,0.040
3601,0.075
3602,0.040
3603,0.035
3604,0.055
3605,0.055
3606,0.020
3607,0.000
3608,0.020
3609,0.035
3610,0.020
3611,0.020
3612,0.000
3613,0.000
3614,0.040
3615,0.020
3616,0.015
3617,0.015
3618,-0.010
3619,0.015
3620,0.035
3621,0.035
3622,0.015
3623,0.035
3624,0.015
3625,0.015
3626,0.015
3627,0.015
3628,-0.010
3629,0.015
3630,0.015
3631,0.030
3632,0.010
3633,-0.010
3634,0.010
3635,0.000
3636,0.000
3637,0.015
3638,0.020
3639,0.020
3640,0.010
3641,0.000
3642,-0.010
3643,-0.010
3644,-0.005
3645,0.010
3646,0.015
3647,0.020
3648,0.020
3649,0.020
3650,0.020
3651,0.015
3652,0.015
3653,0.015
3654,0.025
3655,0.030
3656,0.040
3657,0.030
3658,0.025
3659,0.010
3660,0.010
3661,0.010
3662,0.020
3663,0.010
3664,0.005
3665,0.010
3666,0.010
3667,0.010
3668,0.010
3669,0.010
3670,0.000
3671,0.000
3672,0.000
3673,0.005
3674,0.000
3675,0.000
3676,0.005
3677,0.010
3678,0.020
3679,0.020
3680,0.015
3681,0.010
3682,0.010
3683,0.015
3684,0.015
3685,0.015
3686,0.010
3687,0.010
3688,0.005
3689,0.005
3690,0.015
3691,0.020
3692,0.030
3693,0.035
3694,0.020
3695,0.015
3696,0.010
3697,0.020
3698,0.020
3699,0.015
3700,0.015
3701,0.015
3702,0.020
3703,0.025
3704,0.025
3705,0.025
3706,0.020
3707,0.030
3708,0.025
3709,0.035
3710,0.030
3711,0.030
3712,0.015
3713,0.005
3714,0.000
3715,-0.005
3716,-0.015
3717,-0.015
3718,0.000
3719,0.015
3720,0.025
3721,0.035
3722,0.035
3723,0.025
3724,0.030
3725,0.015
3726,0.035
3727,0.040
3728,0.015
3729,0.035
3730,0.015
3731,-0.005
3732,0.010
3733,0.010
3734,-0.005
3735,0.035
3736,0.010
3737,0.035
3738,0.015
3739,0.015
3740,0.030
3741,0.030
3742,0.010
3743,0.035
3744,0.010
3745,0.010
3746,0.015
3747,0.020
3748,0.045
3749,0.025
3750,0.010
3751,0.010
3752,0.025
3753,0.020
3754,0.040
3755,0.055
3756,0.055
3757,0.065
3758,0.050
3759,0.050
3760,0.035
3761,0.035
3762,0.030
3763,0.025
3764,0.005
3765,-0.035
3766,-0.010
3767,0.010
3768,0.030
3769,0.030
3770,0.025
3771,0.045
3772,0.045
3773,0.030
3774,0.045
3775,0.040
3776,0.020
3777,0.020
3778,-0.005
3779,0.010
3780,0.025
3781,0.000
3782,-0.045
3783,-0.045
3784,0.000
3785,0.045
3786,0.045
3787,0.030
3788,0.050
3789,0.025
3790,0.025
3791,0.020
3792,0.000
3793,-0.005
3794,-0.020
3795,0.000
3796,-0.015
3797,-0.015
3798,0.000
3799,0.010
3800,0.005
3801,0.000
3802,-0.005
3803,-0.005
3804,-0.005
3805,-0.005
3806,0.000
3807,0.005
3808,0.010
3809,0.050
3810,0.035
3811,0.015
3812,0.030
3813,0.030
3814,0.015
3815,0.035
3816,0.015
3817,0.000
3818,-0.020
3819,0.000
3820,0.015
3821,0.015
3822,0.010
3823,-0.005
3824,0.020
3825,0.020
3826,0.040
3827,0.040
3828,0.065
3829,0.045
3830,0.045
3831,0.030
3832,0.025
3833,0.030
3834,0.005
3835,-0.005
3836,-0.020
3837,-0.015
3838,-0.025
3839,-0.045
3840,-0.015
3841,-0.035
3842,-0.040
3843,-0.025
3844,-0.005
3845,0.005
3846,-0.020
3847,-0.020
3848,-0.075
3849,-0.195
3850,-0.330
3851,-0.420
3852,-0.430
3853,-0.385
3854,-0.340
3855,-0.305
3856,-0.255
3857,-0.205
3858,-0.180
3859,-0.160
3860,-0.130
3861,-0.095
3862,-0.080
3863,-0.005
3864,0.035
3865,0.020
3866,-0.010
3867,-0.040
3868,-0.055
3869,-0.040
3870,-0.045
3871,-0.060
3872,-0.055
3873,-0.025
3874,-0.015
3875,0.000
3876,0.045
3877,0.050
3878,0.045
3879,0.045
3880,0.035
3881,0.020
3882,0.020
3883,0.040
3884,0.045
3885,0.040
3886,0.045
3887,0.045
3888,0.045
3889,0.025
3890,0.025
3891,0.025
3892,0.010
3893,0.010
3894,0.010
3895,0.030
3896,0.025
3897,0.025
3898,0.025
3899,0.000
3900,0.020
3901,0.020
3902,0.045
3903,0.020
3904,0.020
3905,0.010
3906,0.010
3907,0.015
3908,0.015
3909,0.015
3910,0.000
3911,0.020
3912,0.000
3913,-0.005
3914,0.010
3915,0.030
3916,0.020
3917,0.000
3918,0.040
3919,0.055
3920,0.015
3921,0.015
3922,-0.010
3923,0.005
3924,0.025
3925,0.005
3926,0.005
3927,0.010
3928,0.025
3929,0.025
3930,0.000
3931,0.000
3932,0.000
3933,0.000
3934,0.025
3935,0.005
3936,0.005
3937,-0.015
3938,0.000
3939,-0.025
3940,-0.025
3941,-0.005
3942,-0.010
3943,-0.025
3944,-0.010
3945,-0.030
3946,0.010
3947,-0.005
3948,-0.020
3949,-0.005
3950,-0.020
3951,-0.025
3952,-0.025
3953,-0.030
3954,-0.055
3955,-0.040
3956,-0.040
3957,-0.025
3958,-0.045
3959,-0.025
3960,-0.025
3961,-0.045
3962,-0.025
3963,-0.030
3964,-0.035
3965,-0.035
3966,-0.035
3967,-0.035
3968,-0.035
3969,-0.035
3970,-0.010
3971,-0.015
3972,-0.040
3973,-0.040
3974,-0.040
3975,-0.045
3976,-0.040
3977,-0.040
3978,-0.040
3979,-0.060
3980,-0.060
3981,-0.060
3982,-0.050
3983,-0.030
3984,-0.040
3985,-0.035
3986,-0.030
3987,-0.025
3988,0.000
3989,0.005
3990,0.025
3991,0.010
3992,0.020
3993,0.040
3994,0.040
3995,0.025
3996,0.025
3997,0.040
3998,0.020
3999,0.000
4000,0.000
4001,0.010
4002,0.025
4003,0.020
4004,0.000
4005,0.035
4006,0.040
4007,0.015
4008,0.040
4009,0.035
4010,0.035
4011,0.015
4012,0.020
4013,0.020
4014,0.040
4015,0.015
4016,0.000
4017,0.040
4018,0.040
4019,0.060
4020,0.040
4021,0.040
4022,0.015
4023,0.015
4024,0.010
4025,0.015
4026,-0.005
4027,-0.005
4028,-0.005
4029,-0.025
4030,0.015
4031,0.015
4032,-0.005
4033,-0.005
4034,0.010
4035,0.015
4036,0.035
4037,0.030
4038,0.030
4039,-0.010
4040,0.030
4041,0.020
4042,0.020
4043,0.005
4044,0.000
4045,0.000
4046,0.005
4047,0.015
4048,0.015
4049,0.015
4050,0.020
4051,0.025
4052,0.025
4053,0.020
4054,0.020
4055,0.020
4056,0.020
4057,0.010
4058,0.010
4059,0.005
4060,0.000
4061,-0.005
4062,0.000
4063,0.010
4064,0.005
4065,0.000
4066,0.015
4067,0.020
4068,0.030
4069,0.015
4070,0.005
4071,0.000
4072,0.005
4073,0.005
4074,0.020
4075,0.015
4076,0.030
4077,0.030
4078,0.030
4079,0.010
4080,0.005
4081,0.000
4082,0.005
4083,0.010
4084,0.005
4085,-0.005
4086,-0.020
4087,-0.020
4088,-0.030
4089,-0.030
4090,-0.030
4091,-0.020
4092,-0.005
4093,0.010
4094,0.020
4095,0.015
4096,0.000
4097,-0.005
4098,-0.015
4099,-0.025
4100,-0.030
4101,-0.035
4102,-0.035
4103,-0.035
4104,-0.020
4105,-0.015
4106,-0.005
4107,0.000
4108,0.015
4109,0.015
4110,0.010
4111,0.005
4112,0.000
4113,-0.005
4114,-0.010
4115,-0.005
4116,0.000
4117,0.000
4118,-0.015
4119,-0.020
4120,-0.025
4121,-0.020
4122,-0.020
4123,-0.010
4124,-0.025
4125,0.015
4126,0.040
4127,0.015
4128,0.015
4129,0.035
4130,0.015
4131,0.010
4132,-0.010
4133,-0.005
4134,0.015
4135,0.010
4136,0.015
4137,0.015
4138,0.015
4139,0.010
4140,-0.010
4141,0.010
4142,0.015
4143,0.010
4144,0.010
4145,0.015
4146,0.000
4147,0.025
4148,0.005
4149,0.010
4150,0.010
4151,0.005
4152,0.020
4153,0.000
4154,0.015
4155,0.035
4156,0.005
4157,0.050
4158,0.050
4159,0.055
4160,0.035
4161,0.030
4162,-0.015
4163,-0.015
4164,0.005
4165,0.010
4166,0.010
4167,0.030
4168,0.050
4169,0.045
4170,0.005
4171,0.005
4172,0.050
4173,0.065
4174,0.040
4175,0.020
4176,0.020
4177,-0.005
4178,-0.010
4179,-0.015
4180,-0.020
4181,-0.025
4182,-0.005
4183,0.020
4184,0.005
4185,0.005
4186,0.010
4187,0.030
4188,0.025
4189,0.025
4190,-0.020
4191,0.000
4192,0.015
4193,-0.020
4194,0.000
4195,-0.015
4196,0.005
4197,-0.020
4198,-0.010
4199,-0.015
4200,0.020
4201,-0.005
4202,-0.025
4203,-0.025
4204,-0.005
4205,0.020
4206,0.005
4207,0.010
4208,0.010
4209,0.015
4210,-0.005
4211,-0.010
4212,-0.030
4213,-0.025
4214,-0.005
4215,0.015
4216,0.020
4217,0.020
4218,-0.020
4219,0.015
4220,-0.005
4221,0.010
4222,0.015
4223,-0.020
4224,-0.020
4225,0.000
4226,0.000
4227,0.005
4228,0.045
4229,0.025
4230,0.030
4231,0.045
4232,0.030
4233,0.005
4234,-0.005
4235,-0.020
4236,-0.015
4237,-0.025
4238,-0.045
4239,-0.055
4240,-0.015
4241,-0.020
4242,0.015
4243,0.035
4244,0.085
4245,0.080
4246,0.060
4247,-0.015
4248,-0.115
4249,-0.230
4250,-0.280
4251,-0.250
4252,-0.245
4253,-0.220
4254,-0.185
4255,-0.135
4256,-0.125
4257,-0.120
4258,-0.100
4259,-0.050
4260,-0.055
4261,-0.020
4262,0.035
4263,0.035
4264,0.040
4265,0.010
4266,-0.020
4267,-0.015
4268,-0.040
4269,-0.025
4270,-0.040
4271,-0.035
4272,-0.005
4273,-0.015
4274,0.020
4275,0.025
4276,0.010
4277,0.025
4278,0.025
4279,0.035
4280,0.000
4281,0.000
4282,0.000
4283,0.025
4284,0.040
4285,0.025
4286,0.005
4287,0.025
4288,0.005
4289,0.025
4290,0.005
4291,0.030
4292,0.030
4293,0.030
4294,0.030
4295,0.025
4296,0.025
4297,0.005
4298,0.020
4299,0.020
4300,0.020
4301,-0.015
4302,-0.020
4303,0.000
4304,0.010
4305,0.010
4306,0.015
4307,-0.005
4308,-0.005
4309,0.000
4310,0.020
4311,0.020
4312,0.015
4313,0.010
4314,0.030
4315,0.000
4316,0.020
4317,0.020
4318,0.015
4319,0.015
4320,-0.005
4321,-0.010
4322,-0.015
4323,-0.015
4324,-0.035
4325,-0.035
4326,-0.030
4327,0.005
4328,0.005
4329,0.000
4330,0.000
4331,0.020
4332,0.020
4333,0.025
4334,0.005
4335,0.005
4336,0.005
4337,0.020
4338,-0.025
4339,-0.005
4340,-0.005
4341,0.010
4342,-0.005
4343,-0.010
4344,-0.010
4345,-0.030
4346,-0.045
4347,-0.020
4348,-0.025
4349,-0.020
4350,-0.025
4351,-0.045
4352,-0.050
4353,-0.035
4354,0.000
4355,-0.020
4356,-0.025
4357,-0.065
4358,-0.065
4359,-0.065
4360,-0.045
4361,-0.045
4362,-0.050
4363,-0.055
4364,-0.055
4365,-0.055
4366,-0.055
4367,-0.035
4368,-0.035
4369,-0.050
4370,-0.075
4371,-0.080
4372,-0.080
4373,-0.100
4374,-0.065
4375,-0.080
4376,-0.060
4377,-0.040
4378,-0.020
4379,-0.040
4380,-0.060
4381,-0.030
4382,-0.030
4383,0.000
4384,-0.015
4385,0.010
4386,0.015
4387,0.020
4388,0.025
4389,0.005
4390,0.030
4391,0.040
4392,0.040
4393,0.000
4394,0.005
4395,0.005
4396,0.040
4397,0.040
4398,0.040
4399,0.040
4400,0.030
4401,0.025
4402,0.020
4403,0.000
4404,0.015
4405,0.040
4406,0.015
4407,0.000
4408,-0.005
4409,-0.025
4410,0.015
4411,0.020
4412,0.020
4413,0.000
4414,0.015
4415,0.020
4416,0.000
4417,0.000
4418,0.020
4419,0.020
4420,0.020
4421,0.035
4422,0.015
4423,0.010
4424,0.035
4425,0.015
4426,0.015
4427,0.015
4428,0.035
4429,0.015
4430,0.015
4431,0.035
4432,-0.005
4433,0.010
4434,-0.005
4435,-0.005
4436,0.010
4437,-0.010
4438,-0.010
4439,0.010
4440,0.020
4441,0.000
4442,0.015
4443,0.020
4444,0.020
4445,0.015
4446,0.015
4447,0.010
4448,0.015
4449,0.010
4450,0.020
4451,0.020
4452,0.020
4453,0.030
4454,0.025
4455,0.030
4456,0.025
4457,0.030
4458,0.025
4459,0.030
4460,0.020
4461,0.020
4462,0.020
4463,0.010
4464,0.010
4465,0.005
4466,0.010
4467,0.000
4468,0.000
4469,-0.010
4470,-0.015
4471,-0.015
4472,-0.020
4473,-0.005
4474,0.000
4475,0.005
4476,0.005
4477,0.000
4478,0.000
4479,0.010
4480,0.020
4481,0.025
4482,0.020
4483,0.000
4484,-0.015
4485,-0.020
4486,-0.020
4487,-0.015
4488,-0.010
4489,0.000
4490,0.000
4491,0.000
4492,0.005
4493,0.015
4494,0.020
4495,0.010
4496,0.000
4497,0.000
4498,0.000
4499,0.010
4500,0.015
4501,0.010
4502,0.005
4503,-0.005
4504,-0.015
4505,-0.010
4506,-0.005
4507,0.010
4508,0.010
4509,0.010
4510,0.010
4511,0.020
4512,0.025
4513,0.030
4514,0.025
4515,0.025
4516,0.025
4517,0.035
4518,0.035
4519,0.020
4520,0.005
4521,0.000
4522,0.000
4523,0.000
4524,0.005
4525,0.010
4526,0.020
4527,0.020
4528,0.020
4529,0.020
4530,0.030
4531,0.040
4532,0.050
4533,0.035
4534,0.015
4535,0.000
4536,-0.005
4537,-0.005
4538,-0.010
4539,0.000
4540,0.000
4541,0.000
4542,0.015
4543,0.020
4544,0.025
4545,0.020
4546,0.015
4547,0.010
4548,0.005
4549,0.020
4550,0.025
4551,0.030
4552,0.020
4553,0.020
4554,0.020
4555,0.020
4556,0.030
4557,0.040
4558,0.050
4559,0.050
4560,0.045
4561,0.045
4562,0.050
4563,0.040
4564,0.040
4565,0.030
4566,0.025
4567,0.020
4568,0.020
4569,0.020
4570,0.025
4571,0.025
4572,0.030
4573,0.030
4574,0.035
4575,0.030
4576,0.020
4577,0.015
4578,0.010
4579,0.020
4580,0.020
4581,0.015
4582,0.020
4583,0.020
4584,0.020
4585,0.005
4586,0.000
4587,0.010
4588,0.005
4589,0.010
4590,0.005
4591,0.015
4592,0.010
4593,0.010
4594,0.000
4595,0.000
4596,0.000
4597,0.005
4598,0.010
4599,0.020
4600,0.030
4601,0.030
4602,0.040
4603,0.035
4604,0.030
4605,0.020
4606,0.000
4607,-0.005
4608,-0.005
4609,0.000
4610,0.000
4611,-0.005
4612,0.000
4613,0.010
4614,0.020
4615,0.020
4616,0.020
4617,0.015
4618,0.015
4619,0.015
4620,0.015
4621,0.015
4622,0.015
4623,0.020
4624,0.020
4625,0.020
4626,0.020
4627,0.025
4628,0.025
4629,0.025
4630,0.030
4631,0.035
4632,0.040
4633,0.040
4634,0.040
4635,0.040
4636,0.040
4637,0.035
4638,0.020
4639,0.000
4640,-0.010
4641,-0.025
4642,-0.020
4643,-0.020
4644,-0.005
4645,0.005
4646,0.020
4647,0.025
4648,0.040
4649,0.045
4650,0.020
4651,-0.055
4652,-0.165
4653,-0.265
4654,-0.325
4655,-0.340
4656,-0.345
4657,-0.345
4658,-0.320
4659,-0.285
4660,-0.255
4661,-0.235
4662,-0.195
4663,-0.140
4664,-0.085
4665,-0.050
4666,-0.025
4667,-0.015
4668,-0.010
4669,-0.010
4670,-0.020
4671,-0.030
4672,-0.020
4673,-0.015
4674,0.000
4675,0.000
4676,0.015
4677,0.025
4678,0.040
4679,0.035
4680,0.030
4681,0.010
4682,0.005
4683,0.000
4684,0.000
4685,0.010
4686,0.020
4687,0.030
4688,0.040
4689,0.040
4690,0.030
4691,0.030
4692,0.030
4693,0.040
4694,0.040
4695,0.035
4696,0.035
4697,0.025
4698,0.035
4699,0.025
4700,0.020
4701,0.010
4702,0.000
4703,0.005
4704,0.010
4705,0.020
4706,0.020
4707,0.020
4708,0.030
4709,0.040
4710,0.045
4711,0.045
4712,0.045
4713,0.040
4714,0.040
4715,0.035
4716,0.045
4717,0.045
4718,0.045
4719,0.035
4720,0.035
4721,0.035
4722,0.030
4723,0.025
4724,0.025
4725,0.020
4726,0.020
4727,0.025
4728,0.030
4729,0.035
4730,0.040
4731,0.035
4732,0.030
4733,0.025
4734,0.020
4735,0.030
4736,0.030
4737,0.030
4738,0.025
4739,0.020
4740,0.010
4741,0.010
4742,0.005
4743,0.005
4744,0.000
4745,0.000
4746,0.000
4747,0.000
4748,0.000
4749,0.000
4750,-0.010
4751,-0.015
4752,-0.020
4753,-0.020
4754,-0.020
4755,-0.015
4756,-0.010
4757,0.000
4758,0.000
4759,-0.005
4760,-0.020
4761,-0.025
4762,-0.025
4763,-0.020
4764,-0.010
4765,-0.015
4766,-0.015
4767,-0.010
4768,-0.005
4769,-0.010
4770,-0.005
4771,-0.020
4772,-0.020
4773,-0.030
4774,-0.020
4775,-0.020
4776,-0.020
4777,-0.015
4778,-0.010
4779,0.000
4780,-0.010
4781,-0.020
4782,-0.020
4783,-0.015
4784,-0.005
4785,-0.010
4786,-0.010
4787,0.000
4788,0.015
4789,0.030
4790,0.025
4791,0.030
4792,0.020
4793,0.020
4794,0.025
4795,0.025
4796,0.030
4797,0.025
4798,0.030
4799,0.035
4800,0.030
4801,0.025
4802,0.030
4803,0.035
4804,0.040
4805,0.045
4806,0.050
4807,0.050
4808,0.035
4809,0.030
4810,0.030
4811,0.030
4812,0.035
4813,0.030
4814,0.030
4815,0.030
4816,0.045
4817,0.045
4818,0.045
4819,0.030
4820,0.030
4821,0.020
4822,0.020
4823,0.020
4824,0.020
4825,0.010
4826,0.005
4827,0.005
4828,0.005
4829,0.010
4830,0.015
4831,0.020
4832,0.020
4833,0.020
4834,0.020
4835,0.010
4836,0.005
4837,0.000
4838,-0.005
4839,0.000
4840,0.005
4841,0.030
4842,0.025
4843,0.040
4844,0.035
4845,0.035
4846,0.015
4847,0.015
4848,0.015
4849,0.020
4850,0.020
4851,0.015
4852,0.010
4853,0.000
4854,-0.010
4855,0.000
4856,0.005
4857,0.020
4858,0.010
4859,0.005
4860,0.000
4861,0.000
4862,0.010
4863,0.015
4864,0.020
4865,0.020
4866,0.020
4867,0.020
4868,0.020
4869,0.020
4870,0.020
4871,0.020
4872,0.020
4873,0.020
4874,0.020
4875,0.015
4876,0.010
4877,0.005
4878,0.005
4879,0.010
4880,0.010
4881,0.020
4882,0.020
4883,0.015
4884,0.015
4885,0.010
4886,0.015
4887,0.015
4888,0.025
4889,0.020
4890,0.020
4891,0.030
4892,0.030
4893,0.030
4894,0.030
4895,0.030
4896,0.035
4897,0.030
4898,0.030
4899,0.020
4900,0.020
4901,0.020
4902,0.030
4903,0.030
4904,0.040
4905,0.030
4906,0.025
4907,0.020
4908,0.020
4909,0.020
4910,0.020
4911,0.010
4912,0.010
4913,0.005
4914,0.010
4915,0.005
4916,0.005
4917,0.000
4918,0.000
4919,0.010
4920,0.015
4921,0.030
4922,0.035
4923,0.035
4924,0.030
4925,0.020
4926,0.020
4927,0.020
4928,0.020
4929,0.015
4930,0.015
4931,0.010
4932,0.020
4933,0.025
4934,0.025
4935,0.030
4936,0.020
4937,0.020
4938,0.020
4939,0.020
4940,0.020
4941,0.020
4942,0.020
4943,0.030
4944,0.030
4945,0.030
4946,0.020
4947,0.015
4948,0.020
4949,0.030
4950,0.040
4951,0.035
4952,0.025
4953,0.020
4954,0.020
4955,0.015
4956,0.015
4957,0.015
4958,0.020
4959,0.020
4960,0.030
4961,0.030
4962,0.035
4963,0.040
4964,0.055
4965,0.055
4966,0.060
4967,0.055
4968,0.065
4969,0.065
4970,0.060
4971,0.065
4972,0.060
4973,0.040
4974,0.025
4975,0.025
4976,0.025
4977,0.035
4978,0.040
4979,0.045
4980,0.045
4981,0.035
4982,0.025
4983,0.020
4984,0.020
4985,0.020
4986,0.020
4987,0.020
4988,0.020
4989,0.020
4990,0.030
4991,0.025
4992,0.020
4993,0.000
4994,-0.010
4995,-0.010
4996,0.000
4997,0.005
4998,0.015
4999,0.020
